#     FILENAME=Skynet_59735_AP_-_ST3_81159_29887.A.cal.txt
#     BASENAME=Skynet_59735_AP_-_ST3_81159_29887
#      CONTROL=SKYNET
#     PROJCODE=Skynet_59735_AP_-_ST3_81159
#     DATAROOT=/raid/scratch/cyborg/SkynetData
#      DATADIR=/raid/scratch/cyborg
#     DATADIR2=/raid/scratch/cyborg/SkynetData/Skynet_59735_AP_-_ST3_81159/Cyb
#     SCANNAME=2022_05_26_22
#     SRC_NAME=AP_-_ST3
#     OBSERVER=socamrad_21318
#     DATE_OBS=2022-06-05T19:37:56.450
#        OBSID=81159
#      SCANNUM=29887
#          MJD=59735.8180145
#          UTC=70676
#     SCANTYPE=ralongmap
#     DATAMODE=HIRES
#     RECEIVER=Rx1_2
#      OBSFREQ=1421.8800
# Actual_FREQ1=1550.0000,
# Actual_FREQ2=1425.0000
#    LO1Tuning=6937.5000
#     RFFILTER=1300_1800
#        OBSBW=-15.6250
#     EFFBANDW=15.6250
#        NCHAN=1024
#    STARTCHAN=51
#     STOPCHAN=972
#         TINT=0.3000
#         TBIN=0.00419430
#       ACCLEN=2048 
#     DURATION=147.00
#     EXPOSURE=98.39
#        FOCUS=37.071
#       RA,DEC=05:30:44.34, 17:17:45.36
#      RA(deg)=85.44407
#     DEC(deg)=19.98307
#   WIDTH(deg)=5.6474x5.8823
#    AZIM(deg)=233.7448
#    ELEV(deg)=62.4715
#     COORDREF=RA_DEC_
#         HREF=85.5000
#         VREF=20.0000
#      RADESYS=FK5
#       OFFSYS=RADEC
#      EQUINOX=2000.00
#     IFATTENS=16.00, 19.00
#   BALANCELEV=1.200 
#   POWER_XLYR=[1.07, 1.38] 
#       VELDEF=RADI-OBS 
#     VELOCITY=0.000 
#         NPOL=2 
#      POLMODE=Linear 
#      POLTYPE=XXYY 
#      WARNING=None 
#     NOISECAL=HI 
#       PRECAL=2 
#      POSTCAL=2 
#     CRYOTEMP=15 
#      BOXTEMP=23 
#         TSYS=XX1:76.12, YY1:111.95
#         TSYS=XX2:36.62, YY2:49.27
#         TCAL=XX1:9.31, YY1:11.00
#         TCAL=XX2:9.18, YY2:10.14
# Calibrated Continuum 
#                
#UTC_Time(s)   Ra(deg)  Dec(deg)   Az(deg)   El(deg)        XX1        YY1        XX2        YY2  Cal   Sweeps 
70676.450000  82.68480   17.2959  233.5970   58.9722   534.0299   192.7108    36.4684    48.4006  -1    0  0 
70676.750000  82.68585   17.2959  233.5970   58.9722   545.4551   195.3810    36.2602    48.4960  -1    0  0 
70677.050000  82.68750   17.2961  233.5970   58.9724   542.8938   194.6587    36.2618    48.4880  -1    0  0 
70677.350000  82.68915   17.2960  233.5960   58.9727   539.5741   192.6575    36.2822    48.4913  -1    0  0 
70677.650000  82.69080   17.2960  233.5960   58.9727   539.9682   191.4244    36.3253    48.4615  -1    0  0 
70677.950000  82.69095   17.2961  233.5970   58.9724   545.6546   189.8401    36.2989    48.4948  -1    0  0 
70678.250000  82.69275   17.2961  233.5970   58.9724   548.0711   189.1356    36.2789    48.5251  -1    0  0 
70678.550000  82.69425   17.2960  233.5960   58.9727   555.2637   188.5634    36.2681    48.5024  -1    0  0 
70678.850000  82.69545   17.2963  233.5970   58.9726   567.4129   188.8446    36.2812    48.5413  -1    0  0 
70679.150000  82.69650   17.2963  233.5970   58.9726   567.2945   189.4152    36.2786    48.4232  -1    0  0 
70679.450000  82.69860   17.2960  233.5960   58.9727   556.7412   189.1174    36.2269    48.4648  -1    0  0 
70679.750000  82.69860   17.2963  233.5970   58.9726   553.3828   189.8465    36.2651    48.4324  -1    0  0 
70680.050000  82.70070   17.2963  233.5970   58.9726   548.7268   189.7090    36.2918    48.5034   0    0  0 
70680.350000  82.70160   17.2963  233.5970   58.9727   543.5334   190.7206    36.2494    48.5406   0    0  0 
70680.650000  82.70325   17.2963  233.5970   58.9726   541.0011   190.6869    36.2578    48.5362   0    0  0 
70680.950000  82.70400   17.2963  233.5970   58.9726   548.1903   190.3491    36.2532    48.5318   0    0  0 
70681.250000  82.70595   17.2964  233.5970   58.9727   553.1361   190.8232    36.2481    48.4618   0    0  0 
70681.550000  82.70640   17.2963  233.5970   58.9726   552.2304   193.3961    36.2747    48.4665   0    0  0 
70681.850000  82.70820   17.2964  233.5970   58.9727   549.6697   192.9894    36.3173    48.5245   0    0  0 
70682.150000  82.70895   17.2963  233.5970   58.9726   548.8942   191.1386    36.3076    48.5663   0    0  0 
70682.450000  82.71135   17.2960  233.5960   58.9727   549.3048   190.0378    36.3108    48.5533   0    0  0 
70682.750000  82.71195   17.2963  233.5970   58.9726   547.1741   188.0619    36.2997    48.5139   0    0  0 
70683.050000  82.71315   17.2963  233.5970   58.9726   541.3357   187.6405    36.2808    48.4982   0    0  0 
70683.350000  82.71435   17.2963  233.5970   58.9726   539.4948   187.0449    36.2636    48.5605   0    0  0 
70683.650000  82.71615   17.2963  233.5970   58.9726   539.1256   186.0004    36.2441    48.5439   0    0  0 
70683.950000  82.71690   17.2963  233.5970   58.9726   540.4252   185.6431    36.2409    48.4750   0    0  0 
70684.250000  82.71855   17.2964  233.5970   58.9727   542.2706   186.4567    36.1960    48.5035   0    0  1 
70684.550000  82.71960   17.2963  233.5970   58.9726   541.3378   187.9849    36.2541    48.5092   0    0  1 
70684.850000  82.72110   17.2963  233.5970   58.9726   538.7785   186.9313    36.1914    48.5470   0    0  1 
70685.150000  82.72155   17.2963  233.5970   58.9726   538.4255   187.0813    36.2655    48.4276   0    0  1 
70685.450000  82.72335   17.2963  233.5970   58.9726   531.8980   185.0068    36.2604    48.3768   0    0  1 
70685.750000  82.72470   17.2963  233.5970   58.9726   545.5651   185.2259    36.1828    48.3489   0    0  1 
70686.050000  82.86435   17.3360  233.4560   59.0898   569.7708   175.3764    35.7713    47.5516   0    0  1 
70686.350000  83.03355   17.3993  233.3020   59.2438   407.1896   170.6211    35.5540    46.0690   0    0  1 
70686.650000  83.17980   17.4580  233.1730   59.3799   269.8056   244.9457    36.0939    46.5690   0    0  1 
70686.950000  83.94180   17.6730  232.3680   60.0190   241.1955   215.9303    36.3584    48.1612   0    0  1 
70687.250000  84.30690   17.7057  231.8810   60.2703   220.7115   161.9730    35.6232    48.7165   0    0  1 
70687.550000  84.86355   17.7104  231.0670   60.6159   172.8974   186.6809    34.7223    47.5090   0    0  1 
70687.850000  85.08270   17.7058  230.7340   60.7458   136.1002   160.1893    34.3405    46.1680   0    0  1 
70688.150000  85.53420   17.6933  230.0360   61.0093   104.6039   109.4237    34.4207    45.5565   0    0  1 
70688.450000  85.81890   17.6840  229.5890   61.1729    86.1457   124.9920    34.4028    45.3476   0    0  1 
70688.750000  86.33400   17.6745  228.7790   61.4716   369.9811   396.0286    34.2654    45.6924   0    0  1 
70689.050000  86.85105   17.6737  227.9630   61.7746   730.2966   613.7221    34.3027    46.1341   0    0  1 
70689.350000  86.99055   17.6755  227.7430   61.8573   663.5185   448.4465    34.3667    46.2381   0    0  1 
70689.650000  87.29205   17.6807  227.2660   62.0359   415.7072   184.0458    34.6878    46.2715   0    0  1 
70689.950000  87.79860   17.6884  226.4510   62.3327   193.1615   172.7007    35.3588    46.5844   0    0  0 
70690.250000  88.00095   17.6902  226.1200   62.4490   178.2440   166.3677    35.4372    46.9942   0    0  0 
70690.550000  88.39605   17.6824  225.4530   62.6650   149.6770   163.0863    35.2352    46.9870   0    0  0 
70690.850000  88.48755   17.5526  225.1350   62.6102   146.9222   154.8072    35.1407    47.0099   0    0  0 
70691.150000  88.48335   17.5521  225.1430   62.6070   150.1589   151.3152    35.1527    46.9873   0    0  0 
70691.450000  88.37625   17.6066  225.3960   62.5901   167.4684   149.3267    35.3442    46.9514   0    0  0 
70691.750000  88.32975   17.6319  225.5080   62.5840   171.7679   150.6801    35.3862    47.0502   0    0  0 
70692.050000  88.32570   17.6324  225.5180   62.5812   174.4062   149.7021    35.3984    46.9227   0    1  1 
70692.350000  88.32480   17.6328  225.5220   62.5804   178.3218   149.3940    35.3678    46.7682   0    1  1 
70692.650000  88.32315   17.6327  225.5270   62.5785   183.2075   149.1451    35.3506    46.8068   0    1  1 
70692.950000  88.32345   17.6332  225.5290   62.5785   185.2912   148.2188    35.3639    46.8872   0    1  1 
70693.250000  88.32390   17.6330  225.5290   62.5783   183.8711   148.8007    35.3444    47.0002   0    1  1 
70693.550000  88.31865   17.6322  225.5400   62.5735   180.1685   148.1035    35.3691    46.9050   0    1  1 
70693.850000  88.18500   17.5816  225.7000   62.4568   151.5920   145.4866    35.2665    46.5661   0    1  1 
70694.150000  87.80925   17.4154  226.1120   62.1090   395.9966   138.4570    34.7061    46.3178   0    1  1 
70694.450000  87.09255   17.2128  227.0210   61.5349   789.7613   353.5397    34.1633    45.9353   0    1  1 
70694.750000  87.09240   17.2128  227.0210   61.5349   819.1251   496.6454    34.2268    45.8511   0    1  1 
70695.050000  86.46255   17.1605  227.9570   61.1260   453.4140   286.8215    34.1944    45.6257   0    1  1 
70695.350000  85.99680   17.1527  228.6750   60.8447   220.5870   108.8532    34.0669    45.7210   0    1  1 
70695.650000  85.85625   17.1570  228.8980   60.7645   176.5818   114.5983    34.2146    46.3217   0    1  1 
70695.950000  85.24800   17.1613  229.8330   60.4027   156.5603   159.5358    34.6806    46.4672   0    1  1 
70696.250000  84.93075   17.1727  230.3250   60.2192   240.1671   196.9072    35.2863    46.3695   0    1  1 
70696.550000  84.63630   17.1807  230.7740   60.0456   270.8078   222.3603    36.8652    46.1749   0    1  1 
70696.850000  84.24405   17.1979  231.3740   59.8175   235.7496   249.9800    37.3835    45.8362   0    1  1 
70697.150000  84.02190   17.2108  231.7150   59.6896   265.2919   147.2065    36.3045    45.6837   0    1  1 
70697.450000  83.39595   17.2388  232.6510   59.3202   398.0521   149.2208    35.7903    46.5325   0    1  1 
70697.750000  83.13990   17.2504  233.0290   59.1677   492.0549   191.6842    36.2138    48.0911   0    1  0 
70698.050000  82.57845   17.2778  233.8500   58.8318   364.8120   162.5928    36.3277    47.7584   0    1  0 
70698.350000  82.46025   17.3026  234.0460   58.7746   341.6821   132.2692    35.4708    46.4674   0    1  0 
70698.650000  82.35975   17.5697  234.5330   58.9080   370.6096   137.5282    34.6391    45.4683   0    1  0 
70698.950000  82.42485   17.7019  234.6180   59.0472   384.3568   142.7854    34.3013    45.2833   0    1  0 
70699.250000  82.54455   17.8426  234.6410   59.2271   379.8127   134.3760    34.2989    45.3205   0    1  0 
70699.550000  82.59885   17.9075  234.6530   59.3095   369.2221   129.0690    34.4046    45.3799   0    1  0 
70699.850000  82.63260   17.9484  234.6630   59.3603   355.6030   125.8835    34.4369    45.3367   0    1  0 
70700.150000  82.64745   17.9649  234.6670   59.3809   349.8139   124.3379    34.4600    45.4557   0    1  0 
70700.450000  82.65585   17.9721  234.6660   59.3911   345.3978   126.3054    34.5055    45.5363   0    2  1 
70700.750000  82.66305   17.9786  234.6670   59.3995   345.0547   124.8978    34.5370    45.4921   0    2  1 
70701.050000  82.66620   17.9808  234.6670   59.4024   342.8239   125.0125    34.5373    45.4632   0    2  1 
70701.350000  82.66710   17.9815  234.6680   59.4029   341.3859   124.3213    34.5409    45.4652   0    2  1 
70701.650000  82.66995   17.9813  234.6660   59.4036   339.5848   125.8644    34.5691    45.5503   0    2  1 
70701.950000  82.77660   18.0147  234.5650   59.4956   300.8860   135.1707    35.0141    45.2953   0    2  1 
70702.250000  82.82085   18.0295  234.5240   59.5346   267.1383   186.5640    36.1695    45.5744   0    2  1 
70702.550000  83.47185   18.2827  233.9510   60.1376   223.0502   157.3182    35.9757    46.7307   0    2  1 
70702.850000  83.65215   18.3241  233.7510   60.2827   155.2207   103.6004    34.9466    47.0533   0    2  1 
70703.150000  84.35745   18.3840  232.8150   60.7716   160.2063    96.2999    34.6335    47.8463   0    2  1 
70703.450000  84.68550   18.3814  232.3300   60.9743   210.0040    94.6575    34.7375    47.5618   0    2  1 
70703.750000  85.12545   18.3748  231.6670   61.2414   209.4406    98.9929    34.4984    46.1064   0    2  1 
70704.050000  85.43730   18.3672  231.1870   61.4271   146.2566    93.8478    34.6195    45.7294   0    2  1 
70704.350000  85.72170   18.3580  230.7420   61.5935    78.4410   124.0819    34.8762    45.9144   0    2  1 
70704.650000  86.16645   18.3479  230.0430   61.8548    86.2639   185.2517    34.7746    46.2165   0    2  1 
70704.950000  86.46990   18.3411  229.5600   62.0316   321.6522   419.1431    34.7074    46.5283   0    2  1 
70705.250000  86.88615   18.3387  228.8990   62.2772   689.0966   605.1253    34.9358    46.4370   0    2  1 
70705.550000  87.18660   18.3380  228.4170   62.4539   738.9092   441.6959    35.0431    46.2963   0    2  1 
70705.850000  87.61905   18.3363  227.7140   62.7052   453.0781   187.9056    35.2772    46.5050   0    2  1 
70706.150000  87.88905   18.3386  227.2740   62.8634   198.2182   282.2339    35.7039    47.3007   0    2  0 
70706.450000  88.02525   18.3402  227.0510   62.9431   223.0252   363.2489    35.6706    48.0741   0    2  0 
70706.750000  88.50630   18.2521  226.1310   63.1468   212.8776   318.7222    35.4761    47.7913   0    2  0 
70707.050000  88.51035   18.2129  226.0730   63.1173   197.8461   315.1884    35.4803    47.9766   0    2  0 
70707.350000  88.45170   18.2357  226.2060   63.1010   198.4041   340.2504    35.6590    47.8201   0    2  0 
70707.650000  88.40535   18.2612  226.3190   63.0947   189.6469   342.4785    35.7204    47.6568   0    2  0 
70707.950000  88.32885   18.3064  226.5110   63.0861   186.6186   333.9501    35.7401    47.6952   0    3  1 
70708.250000  88.32930   18.3066  226.5120   63.0861   182.5542   334.6049    35.7376    47.8390   0    3  1 
70708.550000  88.32405   18.3077  226.5250   63.0830   176.5944   331.6530    35.7657    47.8204   0    3  1 
70708.850000  88.32255   18.3083  226.5300   63.0821   172.6614   326.3382    35.7385    47.8245   0    3  1 
70709.150000  88.32330   18.3091  226.5330   63.0821   174.1332   324.9833    35.6967    47.7099   0    3  1 
70709.450000  88.32450   18.3091  226.5330   63.0821   169.4814   315.8471    35.7283    47.6607   0    3  1 
70709.750000  88.31850   18.3092  226.5440   63.0784   190.8835   264.8891    35.5561    47.2312   0    3  1 
70710.050000  87.95835   18.1657  226.9570   62.7558   424.0475   166.3584    35.0335    46.5900   0    3  1 
70710.350000  87.59115   18.0081  227.3540   62.4175   720.6896   517.4418    34.5235    46.5532   0    3  1 
70710.650000  87.41190   17.9575  227.5800   62.2729   612.7200   601.5199    34.4449    46.6667   0    3  1 
70710.950000  86.57265   17.8339  228.7640   61.6809   165.6762   264.6405    34.4056    46.0909   0    3  1 
70711.250000  86.33325   17.8294  229.1350   61.5346    84.3041   116.9076    34.5983    45.5511   0    3  1 
70711.550000  85.96740   17.8232  229.6970   61.3101   128.5285   115.3803    34.5047    45.5707   0    3  1 
70711.850000  85.65030   17.8255  230.1890   61.1197   161.6898   163.2117    34.3902    46.1727   0    3  1 
70712.150000  85.36200   17.8313  230.6360   60.9487   211.9850   138.5386    34.6554    47.9935   0    3  1 
70712.450000  84.90270   17.8475  231.3490   60.6789   197.0745   130.9055    35.2677    49.1079   0    3  1 
70712.750000  84.75525   17.8537  231.5770   60.5924   186.7110   178.0270    35.5975    48.3430   0    3  1 
70713.050000  83.96430   17.8846  232.7780   60.1220   225.5823   189.8331    35.5660    46.5867   0    3  1 
70713.350000  83.73915   17.8945  233.1160   59.9874   268.9171   232.5175    35.6055    45.5092   0    3  1 
70713.650000  83.25990   17.9157  233.8270   59.6989   342.5526   166.8260    35.2206    45.3702   0    3  1 
70713.950000  82.95135   17.9316  234.2820   59.5133   370.5825   123.5997    34.5513    45.5017   0    3  0 
70714.250000  82.39590   17.9656  235.0970   59.1804   348.7368    88.5120    34.7350    46.1181   0    3  0 
70714.550000  82.30440   18.0003  235.2690   59.1463   336.0080    85.3971    35.3465    47.0911   0    3  0 
70714.850000  82.29945   18.2571  235.6220   59.3300   304.9241    71.4235    35.9602    47.2128   0    3  0 
70715.150000  82.43190   18.4081  235.6460   59.5258   287.5624    64.9234    35.9850    46.6323   0    3  0 
70715.450000  82.52340   18.5099  235.6610   59.6585   276.5336    82.0449    35.6459    46.1302   0    3  0 
70715.750000  82.61880   18.6129  235.6730   59.7945   276.2585    96.1553    35.4564    45.9723   0    3  0 
70716.050000  82.63590   18.6278  235.6710   59.8159   277.7180   106.5301    35.3664    45.9141   0    3  0 
70716.350000  82.64145   18.6349  235.6740   59.8243   278.7777   112.1259    35.2557    45.7808   0    3  0 
70716.650000  82.65540   18.6481  235.6750   59.8419   279.0980   114.8382    35.2028    45.7152   0    4  1 
70716.950000  82.66305   18.6542  235.6750   59.8503   281.1125   116.8302    35.2065    45.7001   0    4  1 
70717.250000  82.66635   18.6557  235.6740   59.8528   279.7681   117.4810    35.1660    45.7651   0    4  1 
70717.550000  82.66860   18.6568  235.6740   59.8544   277.7899   116.7354    35.1542    45.5943   0    4  1 
70717.850000  82.67100   18.6570  235.6730   59.8551   277.8490   118.8415    35.1404    45.5768   0    4  1 
70718.150000  82.76940   18.6847  235.5780   59.9380   308.7703   193.9846    34.8693    45.3373   0    4  1 
70718.450000  82.76940   18.6847  235.5780   59.9380   312.2721   278.7851    34.6339    45.4515   0    4  1 
70718.750000  83.17530   18.8312  235.2170   60.3071   143.6752   143.2621    34.6562    45.7615   0    4  1 
70719.050000  83.97750   19.0400  234.3710   60.9755    97.9058   106.0333    34.5576    45.6066   0    4  1 
70719.350000  84.15315   19.0611  234.1480   61.1029   108.1882    93.2123    34.5234    45.5750   0    4  1 
70719.650000  84.51765   19.0942  233.6640   61.3590   132.7443    98.2116    35.1357    45.9568   0    4  1 
70719.950000  85.14000   19.0935  232.7430   61.7497    90.9112    94.5094    35.6384    47.2569   0    4  1 
70720.250000  85.43175   19.0897  232.2990   61.9287    62.7173    68.5654    35.2346    48.7271   0    4  1 
70720.550000  85.74030   19.0824  231.8200   62.1143    95.1339    78.7772    34.7859    48.8980   0    4  1 
70720.850000  86.25570   19.0678  231.0050   62.4195   138.5979   109.6288    34.8201    47.9982   0    4  1 
70721.150000  86.46420   19.0631  230.6730   62.5428   194.7722   158.8237    35.0339    47.2223   0    4  1 
70721.450000  86.60115   19.0589  230.4520   62.6226   430.8057   268.0934    35.6385    46.5575   0    4  1 
70721.750000  87.32625   19.0413  229.2700   63.0444   526.3608   300.7057    35.9456    46.6667   0    4  1 
70722.050000  87.46140   19.0398  229.0490   63.1235   574.1325   170.4253    35.8127    47.3009   0    4  1 
70722.350000  87.73245   19.0394  228.6060   63.2833   430.5304   181.0206    35.8403    48.3269   0    4  0 
70722.650000  88.29510   19.0465  227.6830   63.6181   274.2753   353.3312    36.1194    49.4414   0    4  0 
70722.950000  88.46850   19.0017  227.3300   63.6829   267.0382   402.1430    36.2363    49.6114   0    4  0 
70723.250000  88.48305   18.8848  227.1470   63.5975   254.7457   393.4391    36.2899    49.6195   0    4  0 
70723.550000  88.46175   18.9026  227.2090   63.5988   233.6368   351.0912    36.2191    49.3810   0    4  0 
70723.850000  88.33995   18.9734  227.5150   63.5834   232.8126   306.7034    36.1271    49.1732   0    4  0 
70724.150000  88.32825   18.9859  227.5540   63.5858   238.9867   293.8950    36.1326    49.1772   0    5  1 
70724.450000  88.32450   18.9851  227.5620   63.5820   248.5102   299.4202    36.0736    49.0856   0    5  1 
70724.750000  88.32390   18.9861  227.5660   63.5818   254.8162   296.5701    36.0857    49.1623   0    5  1 
70725.050000  88.32405   18.9865  227.5690   63.5813   258.3434   299.0409    36.0847    49.1730   0    5  1 
70725.350000  88.32420   18.9868  227.5710   63.5810   261.2105   298.8764    36.1038    49.2016   0    5  1 
