#     FILENAME=Skynet_60335_crab_108895_58585.A.raw.txt
#     BASENAME=Skynet_60335_crab_108895_58585
#      CONTROL=SKYNET
#     PROJCODE=Skynet_60335_crab_108895
#     DATAROOT=/raid/scratch/cyborg/SkynetData
#      DATADIR=/raid/scratch/cyborg
#     DATADIR2=/raid/scratch/cyborg/SkynetData/Skynet_60335_crab_108895/Cyborg
#     SCANNAME=2019_06_26_10
#     SRC_NAME=crab
#     OBSERVER=tomanm27_55532
#     DATE_OBS=2024-01-27T00:06:35.050
#        OBSID=108895
#      SCANNUM=58585
#          MJD=60336.0045723
#          UTC=00395
#     SCANTYPE=ralongmap
#     DATAMODE=LOWRES
#     RECEIVER=Rx1_2
#      OBSFREQ=1395.0000
#    LO1Tuning=7000.0000
#     RFFILTER=1355_1435
#        OBSBW=-500.0000
#     EFFBANDW=80.0000
#        NCHAN=1024
#    STARTCHAN=747
#     STOPCHAN=911
#         TINT=0.5033
#         TBIN=0.00419430
#       ACCLEN=2048 
#     DURATION=574.72
#     EXPOSURE=502.31
#        FOCUS=37.005
#       RA,DEC=05:25:15.46, 19:45:41.29
#      RA(deg)=83.62942
#     DEC(deg)=22.01537
#   WIDTH(deg)=4.9201x4.6274
#    AZIM(deg)=107.8052
#    ELEV(deg)=55.5962
#     COORDREF=RA_DEC_
#         HREF=83.6283
#         VREF=22.0147
#      RADESYS=FK5
#       OFFSYS=AZEL
#      EQUINOX=2000.00
#     IFATTENS=9.00, 10.00
#   BALANCELEV=1.200 
#   POWER_XLYR=[0.82, 0.68] 
#       VELDEF=RADI-OBS 
#     VELOCITY=0.000 
#         NPOL=2 
#      POLMODE=Linear 
#      POLTYPE=XXYY 
#      WARNING=None 
#     NOISECAL=HI 
#       PRECAL=3 
#      POSTCAL=3 
#     CRYOTEMP=290 
#      BOXTEMP=23 
#         TSYS=YY1:148.51, XX1:127.22
#         TCAL=YY1:9.92, XX1:9.15
# Raw Continuum 
#                
#UTC_Time(s)    Ra(hr)  Dec(deg)   Az(deg)   El(deg)        YY1        XX1 Cal   Sweeps 
 395.050000   5.42127   19.7615  112.0750   55.0364   268.6771   141.8887  -1    0  0 
 395.150663   5.42130   19.7615  112.0750   55.0364   285.3512   150.8927   1    0  0 
 395.251326   5.42139   19.7615  112.0750   55.0364   287.7943   152.0227   1    0  0 
 395.351990   5.42142   19.7615  112.0750   55.0364   287.6881   151.8172   1    0  0 
 395.452653   5.42145   19.7615  112.0750   55.0364   287.4385   152.1100   1    0  0 
 395.553316   5.42143   19.7615  112.0750   55.0364   287.4768   152.1683   1    0  0 
 395.653979   5.42146   19.7615  112.0750   55.0364   287.4788   152.0502   1    0  0 
 395.754642   5.42149   19.7615  112.0750   55.0364   287.2684   152.0349   1    0  0 
 395.855305   5.42152   19.7615  112.0750   55.0364   287.3886   152.0616   1    0  0 
 395.955969   5.42153   19.7615  112.0750   55.0364   286.9853   151.9870   1    0  0 
 396.056632   5.42155   19.7615  112.0750   55.0364   287.4517   152.0056   1    0  0 
 396.157295   5.42158   19.7615  112.0750   55.0364   287.0570   152.1239   1    0  0 
 396.257958   5.42161   19.7615  112.0750   55.0364   287.0831   152.0658   1    0  0 
 396.358621   5.42170   19.7615  112.0750   55.0364   287.1654   152.1039   1    0  0 
 396.459285   5.42169   19.7615  112.0750   55.0364   287.2572   152.1592   1    0  0 
 396.559948   5.42172   19.7615  112.0750   55.0364   287.2257   152.0517   1    0  0 
 396.660611   5.42174   19.7615  112.0750   55.0364   287.1582   151.8304   1    0  0 
 396.761275   5.42177   19.7615  112.0750   55.0364   287.3051   151.7546   1    0  0 
 396.861937   5.42172   19.7621  112.0750   55.0370   287.3032   151.9153   1    0  0 
 396.962601   5.42174   19.7622  112.0750   55.0371   287.4231   151.8985   1    0  0 
 397.063264   5.42176   19.7622  112.0750   55.0371   287.3444   151.9844   1    0  0 
 397.163927   5.42192   19.7609  112.0750   55.0358   287.6263   152.0018   1    0  0 
 397.264590   5.42189   19.7615  112.0750   55.0364   287.5053   152.1842   1    0  0 
 397.365254   5.42191   19.7615  112.0750   55.0364   287.3074   151.9383   1    0  0 
 397.465916   5.42194   19.7615  112.0750   55.0364   286.8102   152.0043   1    0  0 
 397.566580   5.42199   19.7615  112.0750   55.0364   286.8877   152.1405   1    0  0 
 397.667243   5.42201   19.7615  112.0750   55.0364   287.2757   151.9611   1    0  0 
 397.767906   5.42204   19.7615  112.0750   55.0364   287.1157   151.9244   1    0  0 
 397.868570   5.42207   19.7615  112.0750   55.0364   287.5950   151.8694   1    0  0 
 397.969233   5.42215   19.7615  112.0750   55.0364   287.4765   151.9849   1    0  0 
 398.069896   5.42214   19.7615  112.0750   55.0364   287.6101   151.9638   1    0  0 
 398.170559   5.42216   19.7615  112.0750   55.0364   268.7214   141.9643   1    0  0 
 398.271222   5.42219   19.7615  112.0750   55.0364   268.3488   141.8986  -1    0  0 
 398.371886   5.42216   19.7615  112.0750   55.0364   268.4234   141.7659   0    0  0 
 398.472549   5.42224   19.7618  112.0750   55.0367   268.6968   141.8116   0    0  0 
 398.573212   5.42227   19.7618  112.0750   55.0367   268.6620   141.7473   0    0  0 
 398.673875   5.42230   19.7618  112.0750   55.0367   268.6324   141.8216   0    0  0 
 398.774538   5.42233   19.7612  112.0750   55.0361   268.9562   141.6800   0    0  0 
 398.875201   5.42235   19.7611  112.0750   55.0360   268.5805   141.6931   0    0  0 
 398.975865   5.42238   19.7611  112.0750   55.0360   268.6731   141.7400   0    0  0 
 399.076528   5.42241   19.7610  112.0750   55.0359   268.5141   141.7379   0    0  0 
 399.177191   5.42248   19.7615  112.0750   55.0364   268.6573   141.7675   0    0  0 
 399.277854   5.42252   19.7615  112.0750   55.0364   269.1345   141.7359   0    0  0 
 399.378517   5.42255   19.7615  112.0750   55.0364   268.6974   141.7459   0    0  0 
 399.479181   5.42184   19.7615  112.0855   55.0427   268.8365   141.7839   0    0  0 
 399.579844   5.39914   19.6759  112.5601   55.2370   268.8652   141.8543   0    0  0 
 399.680507   5.39740   19.6694  112.5967   55.2521   268.8121   141.8202   0    0  0 
 399.781171   5.39566   19.6629  112.6333   55.2673   268.9657   141.8681   0    0  0 
 399.881833   5.40506   19.7631  112.3512   55.2281   268.7740   141.7235   0    0  0 
 399.982497   5.41468   19.7805  112.1754   55.1358   268.7997   141.8169   0    0  0 
 400.083160   5.41457   19.7831  112.1742   55.1389   268.5339   141.8548   0    0  0 
 400.183823   5.41446   19.7856  112.1730   55.1421   268.5634   141.8540   0    0  0 
 400.284486   5.41180   19.7583  112.2522   55.1524   268.4454   141.7787   0    0  0 
 400.385150   5.41393   19.8188  112.1386   55.1698   268.5814   141.8309   0    0  0 
 400.485812   5.41382   19.8239  112.1340   55.1746   268.5039   141.9867   0    0  0 
 400.586476   5.41371   19.8291  112.1293   55.1794   268.6930   141.9204   0    0  0 
 400.687139   5.41406   19.7486  112.2312   55.1243   269.0290   141.7975   0    0  0 
 400.787802   5.41414   19.7688  112.2032   55.1357   268.8927   141.7842   0    0  0 
 400.888466   5.41407   19.7696  112.2036   55.1372   268.9160   141.9823   0    0  0 
 400.989129   5.41401   19.7703  112.2040   55.1386   269.0066   141.8562   0    0  0 
 401.089792   5.41490   19.7709  112.1902   55.1302   268.7117   141.7707   0    0  0 
 401.593108   5.41484   19.7644  112.2030   55.1288   268.9172   141.7080   0    0  0 
 402.096424   5.41549   19.7564  112.2046   55.1174   268.8060   141.8447   0    0  1 
 402.599740   5.41586   19.7609  112.1950   55.1181   268.6127   141.7948   0    0  1 
 403.103056   5.41601   19.7582  112.1986   55.1161   268.5107   141.7133   0    0  1 
 403.606372   5.41630   19.7619  112.1910   55.1167   268.4923   141.5972   0    0  1 
 404.109688   5.45997   19.7110  111.5733   54.6105   268.4646   141.6191   0    0  1 
 404.613004   5.48248   19.9045  110.9648   54.4898   268.1229   141.6537   0    0  1 
 405.116320   5.47483   19.7349  111.3183   54.4656   268.0910   141.7110   0    0  1 
 405.619636   5.48676   19.7594  111.1038   54.3524   268.2178   141.5303   0    0  1 
 406.122952   5.49680   19.7622  110.9487   54.2457   268.4413   141.6416   0    0  1 
 406.626268   5.50845   19.7515  110.7873   54.1126   268.4190   141.6464   0    0  1 
 407.129584   5.51900   19.7608  110.6172   54.0039   268.2635   141.7633   0    0  1 
 407.632900   5.53016   19.7618  110.4493   53.8836   268.5704   141.6922   0    0  1 
 408.136216   5.53985   19.7579  110.3109   53.7761   268.4647   141.7659   0    0  1 
 408.639532   5.55207   19.7650  110.1204   53.6471   268.9685   141.9723   0    0  1 
 409.142848   5.56124   19.7637  109.9881   53.5467   269.2486   142.0297   0    0  1 
 409.646164   5.57231   19.7616  109.8278   53.4249   269.5098   142.2824   0    0  1 
 410.149480   5.58238   19.7597  109.6837   53.3138   269.5720   142.3068   0    0  1 
 410.652796   5.59435   19.7615  109.5065   53.1838   269.3991   142.3376   0    0  1 
 411.156112   5.60402   19.7607  109.3691   53.0780   269.2461   142.0614   0    0  1 
 411.659428   5.61528   19.7609  109.2059   52.9548   269.0030   141.8695   0    0  1 
 412.162744   5.62550   19.7598  109.0610   52.8424   268.8979   141.7676   0    0  1 
 412.666060   5.63774   19.7637  108.8802   52.7099   268.5974   141.7788   0    0  1 
 413.169376   5.64729   19.7633  108.7455   52.6051   268.3460   141.6258   0    0  1 
 413.672692   5.65734   19.7645  108.6026   52.4960   268.1695   141.5699   0    0  1 
 414.176008   5.66867   19.7599  108.4480   52.3684   268.0815   141.5637   0    0  1 
 414.679324   5.67913   19.7608  108.2995   52.2538   267.8606   141.6958   0    0  1 
 415.182640   5.68996   19.7619  108.1472   52.1349   267.9435   141.8611   0    0  1 
 415.685956   5.70010   19.7608  108.0073   52.0227   267.7604   141.8154   0    0  1 
 416.189272   5.71126   19.7611  107.8520   51.9002   267.6687   141.7290   0    0  1 
 416.692588   5.72340   19.7622  107.6822   51.7661   267.7207   141.8004   0    0  1 
 417.195904   5.73340   19.7604  107.5474   51.6549   267.6512   141.9045   0    0  1 
 417.699220   5.74301   19.7638  107.4114   51.5508   267.5536   141.8246   0    0  1 
 418.202536   5.75419   19.7622  107.2610   51.4260   267.8923   141.7712   0    0  0 
 418.705852   5.76589   19.7630  107.1001   51.2968   268.1168   141.8260   0    0  0 
 419.209168   5.71757   19.9527  107.5287   51.9559   268.0305   141.8059   0    0  0 
 419.712484   5.72913   19.9569  107.3653   51.8303   268.0229   141.8606   0    0  0 
 420.215800   5.73286   19.9409  107.3358   51.7803   268.0383   141.8147   0    1  1 
 420.719116   5.73305   19.9306  107.3476   51.7729   267.9490   141.9631   0    1  1 
 421.222432   5.73423   19.9190  107.3485   51.7547   267.9641   141.9994   0    1  1 
 421.725748   5.73432   19.9244  107.3422   51.7587   267.9085   141.9738   0    1  1 
 422.229064   5.68323   19.8797  108.1152   52.3052   267.7333   141.9969   0    1  1 
 422.732380   5.67410   19.8116  108.3346   52.3666   267.8734   141.9572   0    1  1 
 423.235696   5.67414   19.9039  108.2193   52.4238   268.0102   141.8948   0    1  1 
 423.739012   5.65929   19.9578  108.3622   52.6242   267.7707   141.8750   0    1  1 
 424.242328   5.65277   19.9229  108.5038   52.6773   268.1069   141.8088   0    1  1 
 424.745644   5.64087   19.9148  108.6866   52.8062   267.9060   141.7044   0    1  1 
 425.248960   5.63226   19.9123  108.8170   52.9019   268.0332   141.7613   0    1  1 
 425.752276   5.61953   19.9142  108.9997   53.0462   268.0259   141.6232   0    1  1 
 426.255592   5.61049   19.9092  109.1417   53.1449   268.1664   141.6775   0    1  1 
 426.758908   5.59821   19.9131  109.3169   53.2850   268.6675   141.7171   0    1  1 
 427.262224   5.58912   19.9125  109.4537   53.3869   268.7630   141.7883   0    1  1 
 427.765540   5.57687   19.9084  109.6412   53.5216   268.8646   141.8123   0    1  1 
 428.268856   5.56776   19.9106  109.7767   53.6253   268.8171   141.7033   0    1  1 
 428.772172   5.55545   19.9138  109.9563   53.7647   268.4901   141.5473   0    1  1 
 429.275488   5.54491   19.9106  110.1212   53.8805   268.1587   141.4492   0    1  1 
 429.778804   5.53618   19.9135  110.2507   53.9805   267.7401   141.3328   0    1  1 
 430.282120   5.52338   19.9095  110.4512   54.1202   267.7661   141.3482   0    1  1 
 430.785436   5.51440   19.9113  110.5874   54.2217   267.7613   141.3070   0    1  1 
 431.288752   5.50203   19.9104  110.7783   54.3584   267.4934   141.4731   0    1  1 
 431.792068   5.49267   19.9125  110.9213   54.4640   267.3738   141.3638   0    1  1 
 432.295384   5.48056   19.9123  111.1098   54.5982   267.5328   141.2575   0    1  1 
 432.798700   5.47155   19.9123  111.2504   54.6983   267.2813   141.3184   0    1  1 
 433.302016   5.45965   19.9117  111.4382   54.8299   267.2128   141.2241   0    1  1 
 433.805332   5.45014   19.9110  111.5894   54.9347   267.2591   141.1189   0    1  1 
 434.308648   5.43781   19.9122  111.7837   55.0717   267.3996   141.2945   0    1  1 
 434.811964   5.42853   19.9105  111.9342   55.1731   267.4937   141.3516   0    1  1 
 435.315280   5.41815   19.9101  112.0997   55.2874   267.3411   141.5147   0    1  1 
 435.818596   5.40724   19.9096  112.2770   55.4073   267.5354   141.6646   0    1  1 
 436.321912   5.39579   19.9133  112.4574   55.5353   267.7163   141.5148   0    1  0 
 436.825228   5.38483   19.9145  112.6329   55.6566   267.4142   141.5684   0    1  0 
 437.328544   5.42690   19.8264  112.0836   55.1452   267.7474   141.6942   0    1  0 
 437.831860   5.42060   20.1135  111.7974   55.3980   267.6679   141.8102   0    1  0 
 438.335176   5.41479   20.0730  111.9463   55.4365   267.8267   141.7395   0    2  1 
 438.838492   5.41535   20.0711  111.9429   55.4312   267.5342   141.6749   0    2  1 
 439.341808   5.41523   20.0699  111.9481   55.4330   267.6301   141.7784   0    2  1 
 439.845124   5.41511   20.0704  111.9510   55.4360   267.7021   141.5547   0    2  1 
 440.348440   5.45759   20.0039  111.3741   54.9323   267.7592   141.5667   0    2  1 
 440.851756   5.48325   20.2291  110.6701   54.7967   267.5710   141.6762   0    2  1 
 441.355072   5.47487   20.0390  111.0654   54.7678   267.5840   141.6374   0    2  1 
 441.858388   5.48673   20.0508  110.8689   54.6475   267.5804   141.6278   0    2  1 
 442.361704   5.49628   20.0663  110.7043   54.5536   267.5058   141.6144   0    2  1 
 442.865020   5.50858   20.0536  110.5348   54.4120   267.6206   141.5459   0    2  1 
 443.368336   5.51767   20.0564  110.3965   54.3151   267.8326   141.5719   0    2  1 
 443.871652   5.52856   20.0629  110.2250   54.2009   267.7127   141.7410   0    2  1 
 444.374968   5.53885   20.0647  110.0696   54.0898   267.8100   141.5437   0    2  1 
 444.878284   5.55129   20.0623  109.8878   53.9529   267.6807   141.5826   0    2  1 
 445.381600   5.56150   20.0622  109.7385   53.8412   267.8547   141.5855   0    2  1 
 445.884916   5.57106   20.0612  109.5999   53.7364   267.9889   141.4705   0    2  1 
 446.388232   5.58343   20.0608  109.4201   53.6008   268.1065   141.4710   0    2  1 
 446.891548   5.59262   20.0605  109.2869   53.5003   267.9571   141.5369   0    2  1 
 447.394864   5.60438   20.0616  109.1153   53.3721   267.7660   141.7053   0    2  1 
 447.898180   5.61363   20.0600  108.9838   53.2700   267.5634   141.5666   0    2  1 
 448.401496   5.62594   20.0638  108.8029   53.1373   267.4208   141.5504   0    2  1 
 448.904812   5.63522   20.0627  108.6714   53.0347   267.4543   141.5006   0    2  1 
 449.408128   5.64780   20.0642  108.4904   52.8970   267.4288   141.6159   0    2  1 
 449.911444   5.65646   20.0635  108.3697   52.8015   267.2810   141.4970   0    2  1 
 450.414760   5.66918   20.0609  108.1930   52.6600   267.2853   141.6678   0    2  1 
 450.918076   5.67798   20.0606  108.0699   52.5628   267.3752   141.7380   0    2  1 
 451.421392   5.69032   20.0588  107.8997   52.4252   267.2026   141.8646   0    2  1 
 451.924708   5.69879   20.0607  107.7803   52.3336   267.1984   141.8354   0    2  1 
 452.428024   5.71161   20.0621  107.6006   52.1926   266.9989   141.9401   0    2  1 
 452.931340   5.72065   20.0624  107.4747   52.0930   266.8651   141.8764   0    2  1 
 453.434656   5.73153   20.0635  107.3236   51.9733   267.0123   141.8907   0    2  1 
 453.937972   5.74397   20.0613  107.1563   51.8341   267.0388   141.8775   0    2  1 
 454.441288   5.75518   20.0622  107.0023   51.7098   267.0311   141.8326   0    2  0 
 454.944604   5.76370   20.0638  106.8840   51.6172   267.2433   141.8310   0    2  0 
 455.447920   5.72531   20.1923  107.2513   52.1275   266.9968   141.7768   0    2  0 
 455.951236   5.73124   20.2445  107.1033   52.0942   267.0734   141.8302   0    2  0 
 456.454552   5.73305   20.2303  107.0984   52.0667   266.9301   141.8216   0    3  1 
 456.957868   5.73316   20.2300  107.0998   52.0668   267.1226   141.8326   0    3  1 
 457.461184   5.73404   20.2177  107.1052   52.0511   266.9200   141.8925   0    3  1 
 457.964500   5.73437   20.2175  107.1029   52.0488   266.9238   141.8474   0    3  1 
 458.467816   5.68226   20.1664  107.8986   52.6039   267.0726   141.8588   0    3  1 
 458.971132   5.67971   20.1464  107.9630   52.6211   267.3417   141.7234   0    3  1 
 459.474448   5.67331   20.2106  107.9741   52.7334   267.3403   141.7180   0    3  1 
 459.977764   5.66250   20.2213  108.1155   52.8622   267.3390   141.7478   0    3  1 
 460.481080   5.65216   20.2216  108.2660   52.9794   267.2081   141.7110   0    3  1 
 460.984396   5.64188   20.2127  108.4257   53.0898   267.3524   141.5280   0    3  1 
 461.487712   5.63102   20.2144  108.5830   53.2138   267.4015   141.4980   0    3  1 
 461.991028   5.62001   20.2129  108.7464   53.3369   267.5872   141.5480   0    3  1 
 462.494344   5.60965   20.2134  108.8992   53.4539   267.5535   141.4498   0    3  1 
 462.997660   5.59971   20.2107  109.0494   53.5643   267.3872   141.5921   0    3  1 
 463.500976   5.58841   20.2133  109.2143   53.6928   267.4627   141.3336   0    3  1 
 464.004292   5.57754   20.2114  109.3790   53.8137   267.5572   141.2714   0    3  1 
 464.507608   5.56796   20.2104  109.5246   53.9209   267.5727   141.4276   0    3  1 
 465.010924   5.55777   20.2135  109.6733   54.0365   267.4335   141.4609   0    3  1 
 465.514240   5.54659   20.2117  109.8457   54.1610   267.3813   141.5487   0    3  1 
 466.017556   5.53642   20.2122  109.9993   54.2751   267.0574   141.4243   0    3  1 
 466.520872   5.52499   20.2126  110.1731   54.4028   267.1896   141.5260   0    3  1 
 467.024188   5.51484   20.2123  110.3294   54.5162   267.0499   141.4987   0    3  1 
 467.527504   5.50375   20.2101  110.5032   54.6382   266.8901   141.5070   0    3  1 
 468.030820   5.49371   20.2096  110.6595   54.7502   266.7685   141.6087   0    3  1 
 468.534136   5.48243   20.2100  110.8347   54.8756   266.8731   141.6213   0    3  1 
 469.037452   5.47239   20.2120  110.9885   54.9884   266.7534   141.6772   0    3  1 
 469.540768   5.46110   20.2123  111.1658   55.1137   266.7011   141.6532   0    3  1 
 470.044084   5.45093   20.2131  111.3248   55.2279   266.7906   141.4796   0    3  1 
 470.547400   5.43957   20.2111  111.5080   55.3520   266.8882   141.4517   0    3  1 
 471.050716   5.42953   20.2121  111.6671   55.4638   266.8734   141.4101   0    3  1 
 471.554032   5.41665   20.2124  111.8718   55.6059   266.8187   141.3653   0    3  1 
 472.057348   5.40842   20.2118  112.0056   55.6966   267.0304   141.4990   0    3  1 
 472.560664   5.39674   20.2133  112.1925   55.8261   267.0786   141.3224   0    3  0 
 473.063980   5.38716   20.2139  112.3487   55.9326   266.9973   141.5251   0    3  0 
 473.567296   5.42163   20.2619  111.7338   55.5896   266.8793   141.4188   0    3  0 
 474.070612   5.42761   20.6600  111.0930   55.7778   267.0388   141.5890   0    3  0 
 474.573928   5.41662   20.3578  111.6864   55.7072   267.2853   141.6658   0    4  1 
 475.077244   5.41593   20.3600  111.6973   55.7173   267.0320   141.4313   0    4  1 
 475.580560   5.41602   20.3599  111.6976   55.7183   267.1305   141.4610   0    4  1 
 476.083876   5.41570   20.3663  111.6961   55.7273   267.3113   141.5571   0    4  1 
