#     FILENAME=Skynet_60333_barnard_33-nb_107271_56634.A.spect.cal.txt
#     BASENAME=Skynet_60333_barnard_33-nb_107271_56634
#      CONTROL=SKYNET
#     PROJCODE=Skynet_60333_barnard_33-nb_107271
#     DATAROOT=/raid/scratch/cyborg/SkynetData
#      DATADIR=/raid/scratch/cyborg
#     DATADIR2=/raid/scratch/cyborg/SkynetData/Skynet_60333_barnard_33-nb_1072
#     SCANNAME=2019_06_26_10
#     SRC_NAME=barnard_33-nb
#     OBSERVER=socamrad_21318
#     DATE_OBS=2024-01-24T03:19:52.000
#        OBSID=107271
#      SCANNUM=56634
#          MJD=60333.1387963
#          UTC=11992
#     SCANTYPE=ralongmap
#     DATAMODE=HIRES
#     RECEIVER=Rx1_2
#      OBSFREQ=1395.0000
# Actual_FREQ1=1421.8850,
# Actual_FREQ2=1406.2600
#    LO1Tuning=6856.2600
#     RFFILTER=1355_1435
#        OBSBW=-15.6250
#     EFFBANDW=15.6250
#        NCHAN=1024
#    STARTCHAN=51
#     STOPCHAN=972
#         TINT=0.1342
#         TBIN=0.00419430
#       ACCLEN=2048 
#     DURATION=176.09
#     EXPOSURE=118.38
#        FOCUS=37.049
#       RA,DEC=05:32:14.91, -04:40:06.56
#      RA(deg)=85.17580
#     DEC(deg)=-2.44630
#   WIDTH(deg)=4.4307x4.8706
#    AZIM(deg)=191.5431
#    ELEV(deg)=48.3010
#     COORDREF=RA_DEC_
#         HREF=85.2454
#         VREF=-2.4583
#      RADESYS=FK5
#       OFFSYS=AZEL
#      EQUINOX=2000.00
#     IFATTENS=11.00, 12.00
#   BALANCELEV=1.200 
#   POWER_XLYR=[1.72, 2.23] 
#       VELDEF=RADI-OBS 
#     VELOCITY=0.000 
#         NPOL=2 
#      POLMODE=Linear 
#      POLTYPE=XXYY 
#      WARNING=None 
#     NOISECAL=HI 
#       PRECAL=2 
#      POSTCAL=2 
#     CRYOTEMP=289 
#      BOXTEMP=23 
#         TSYS=XX1:134.40, YY1:135.12
#         TSYS=XX2:121.55, YY2:146.84
#         TCAL=XX1:9.17, YY1:10.07
#         TCAL=XX2:9.16, YY2:9.99
# Calibrated spectra 
#                
#                
#Freq1(MHz)         XX1          YY1   Freq2(MHz)       XX2         YY2 
   1428.91930      71.2961      62.0859    1413.29430      65.5928      91.8792
   1428.90404      71.7182      62.2927    1413.27904      65.9440      92.1992
   1428.88878      71.9612      62.5442    1413.26378      66.0869      92.7150
   1428.87353      72.2809      62.7427    1413.24853      66.4360      93.0642
   1428.85827      72.6296      62.9157    1413.23327      66.7782      93.4811
   1428.84301      73.0632      63.0219    1413.21801      67.0422      94.0131
   1428.82775      73.3733      63.3091    1413.20275      67.2883      94.4261
   1428.81249      73.7384      63.5709    1413.18749      67.6439      94.7969
   1428.79723      74.0626      63.8477    1413.17223      67.9498      95.3002
   1428.78197      74.5129      64.1315    1413.15697      68.1186      95.8797
   1428.76671      74.8228      64.2281    1413.14171      68.4562      96.2641
   1428.75146      75.2281      64.5985    1413.12646      68.9382      96.8031
   1428.73620      75.6890      64.9309    1413.11120      69.2774      97.2341
   1428.72094      76.1385      65.1520    1413.09594      69.5468      97.8355
   1428.70568      76.4369      65.3340    1413.08068      69.8227      98.4249
   1428.69042      76.7758      65.6300    1413.06542      70.2726      98.7782
   1428.67516      77.2769      65.9739    1413.05016      70.5292      99.4755
   1428.65990      77.5494      66.2729    1413.03490      70.9650      99.8012
   1428.64464      78.0180      66.5530    1413.01964      71.2900     100.5029
   1428.62938      78.4885      66.7791    1413.00438      71.6957     100.8619
   1428.61413      78.8917      67.1219    1412.98913      72.1314     101.5633
   1428.59887      79.2119      67.4061    1412.97387      72.4428     102.1122
   1428.58361      79.7285      67.8286    1412.95861      72.8706     102.5689
   1428.56835      79.9938      68.1860    1412.94335      73.1682     103.2264
   1428.55309      80.4755      68.4427    1412.92809      73.4693     103.8373
   1428.53783      80.9105      68.6779    1412.91283      73.9973     104.4728
   1428.52257      81.2719      69.0551    1412.89757      74.4923     105.0571
   1428.50731      81.7993      69.4419    1412.88231      74.8154     105.4420
   1428.49206      82.2732      69.8660    1412.86706      75.1672     106.2827
   1428.47680      82.6381      70.1316    1412.85180      75.6831     106.8382
   1428.46154      83.0787      70.3846    1412.83654      76.0711     107.5107
   1428.44628      83.4231      70.9006    1412.82128      76.3302     108.0601
   1428.43102      83.8988      71.2155    1412.80602      76.8546     108.6388
   1428.41576      84.3960      71.4956    1412.79076      77.2793     109.1336
   1428.40050      84.7776      71.8686    1412.77550      77.7189     109.8632
   1428.38524      85.2145      72.3555    1412.76024      78.1019     110.3742
   1428.36999      85.6354      72.6003    1412.74499      78.4098     110.9836
   1428.35473      86.0971      72.9850    1412.72973      78.9888     111.7095
   1428.33947      86.5610      73.3228    1412.71447      79.4214     112.2503
   1428.32421      86.9707      73.6776    1412.69921      79.7361     112.9421
   1428.30895      87.3481      74.1704    1412.68395      80.1691     113.5009
   1428.29369      87.9146      74.4592    1412.66869      80.7199     114.1654
   1428.27843      88.1358      74.8722    1412.65343      81.0447     114.8945
   1428.26317      88.7642      75.2098    1412.63817      81.4260     115.6082
   1428.24792      89.1572      75.6063    1412.62292      82.0538     116.1857
   1428.23266      89.5557      76.0156    1412.60766      82.4595     116.7160
   1428.21740      89.9110      76.4931    1412.59240      82.9448     117.4481
   1428.20214      90.4597      76.7400    1412.57714      83.3290     117.9749
   1428.18688      91.0063      77.1966    1412.56188      83.7823     118.6470
   1428.17162      91.3303      77.5774    1412.54662      84.2916     119.4910
   1428.15636      91.8976      77.9874    1412.53136      84.7113     120.0858
   1428.14110      92.1272      78.3629    1412.51610      85.0423     120.7630
   1428.12584      92.5210      78.8254    1412.50084      85.4498     121.4223
   1428.11059      92.9455      79.2257    1412.48559      85.8198     121.8139
   1428.09533      93.5291      79.6129    1412.47033      86.4192     122.5367
   1428.08007      93.8310      80.0184    1412.45507      86.7316     123.1975
   1428.06481      94.4802      80.3307    1412.43981      87.2215     123.7846
   1428.04955      94.7030      80.7142    1412.42455      87.6488     124.4364
   1428.03429      95.1038      81.2032    1412.40929      88.2358     125.0369
   1428.01903      95.4886      81.6240    1412.39403      88.6874     125.6440
   1428.00377      95.8871      81.9605    1412.37877      89.1201     126.3103
   1427.98852      96.3588      82.4804    1412.36352      89.5901     126.8134
   1427.97326      96.7128      82.8147    1412.34826      89.9706     127.5872
   1427.95800      97.0598      83.3786    1412.33300      90.2671     128.2207
   1427.94274      97.5463      83.6998    1412.31774      90.8045     128.8426
   1427.92748      97.9973      84.1967    1412.30248      91.3144     129.4667
   1427.91222      98.3163      84.5148    1412.28722      91.6590     130.2457
   1427.89696      98.6972      84.9186    1412.27196      92.1750     130.4741
   1427.88170      99.1293      85.4651    1412.25670      92.5079     131.3528
   1427.86645      99.5499      85.7395    1412.24145      92.8851     131.8792
   1427.85119     100.1380      86.1592    1412.22619      93.2805     132.4904
   1427.83593     100.3642      86.6528    1412.21093      93.8007     133.1706
   1427.82067     100.7773      86.8535    1412.19567      94.2090     133.8517
   1427.80541     100.9947      87.3143    1412.18041      94.6803     134.3022
   1427.79015     101.5353      87.8923    1412.16515      95.0981     134.9848
   1427.77489     101.8326      88.1659    1412.14989      95.4383     135.5565
   1427.75963     102.2850      88.5644    1412.13463      95.9772     136.1793
   1427.74437     102.6837      88.9746    1412.11937      96.3167     136.5669
   1427.72912     102.9442      89.3641    1412.10412      96.6872     137.1544
   1427.71386     103.2053      89.7579    1412.08886      97.2299     137.8275
   1427.69860     103.6278      90.1799    1412.07360      97.5812     138.4598
   1427.68334     103.9100      90.6662    1412.05834      98.0651     139.1080
   1427.66808     104.3458      90.9524    1412.04308      98.4105     139.6514
   1427.65282     104.7472      91.3186    1412.02782      98.9762     140.0084
   1427.63756     105.1215      91.8402    1412.01256      99.2206     140.9047
   1427.62230     105.3179      92.1383    1411.99730      99.7006     141.2942
   1427.60705     105.6632      92.7113    1411.98205     100.0042     141.7904
   1427.59179     106.1710      92.9456    1411.96679     100.3899     142.4475
   1427.57653     106.3442      93.2816    1411.95153     100.8280     142.6694
   1427.56127     106.6660      93.6912    1411.93627     101.2983     143.3869
   1427.54601     106.9026      93.9955    1411.92101     101.6114     143.7474
   1427.53075     107.2805      94.5864    1411.90575     101.9408     144.3357
   1427.51549     107.4903      94.9956    1411.89049     102.4391     144.9935
   1427.50023     108.0598      95.3513    1411.87523     102.6748     145.4419
   1427.48498     108.2925      95.6316    1411.85998     103.0732     146.1399
   1427.46972     108.4575      96.0839    1411.84472     103.3869     146.4293
   1427.45446     108.7370      96.4544    1411.82946     103.9850     146.6396
   1427.43920     109.0923      96.8333    1411.81420     104.2962     147.3413
   1427.42394     109.3305      97.1032    1411.79894     104.7387     147.5904
   1427.40868     109.5802      97.4998    1411.78368     105.0329     148.3473
   1427.39342     109.9503      97.8315    1411.76842     105.3093     148.7276
   1427.37816     110.1892      98.1469    1411.75316     105.6884     149.2571
   1427.36291     110.4291      98.7192    1411.73791     106.1762     149.4319
   1427.34765     110.7047      98.8846    1411.72265     106.4961     150.1353
   1427.33239     110.9858      99.4197    1411.70739     106.9174     150.4228
   1427.31713     111.3815      99.8087    1411.69213     107.1126     151.0233
   1427.30187     111.4267     100.0071    1411.67687     107.6243     151.4860
   1427.28661     111.6664     100.4398    1411.66161     107.8590     151.6703
   1427.27135     111.8919     100.7984    1411.64635     108.1004     152.0470
   1427.25609     112.2513     101.1452    1411.63109     108.4435     152.8847
   1427.24083     112.4554     101.5431    1411.61583     108.7392     153.0228
   1427.22558     112.7497     101.9453    1411.60058     109.3249     153.3205
   1427.21032     112.8326     102.2475    1411.58532     109.6312     153.7463
   1427.19506     113.2442     102.7090    1411.57006     109.8021     154.3938
   1427.17980     113.5003     102.8789    1411.55480     110.1384     154.5830
   1427.16454     113.6433     103.3117    1411.53954     110.3888     155.2038
   1427.14928     113.8555     103.5828    1411.52428     110.7553     155.1421
   1427.13402     114.0321     103.8889    1411.50902     111.1632     155.5432
   1427.11876     114.2332     104.1981    1411.49376     111.4527     156.0770
   1427.10351     114.4115     104.5701    1411.47851     111.6906     156.2961
   1427.08825     114.7112     105.0399    1411.46325     112.0678     156.7850
   1427.07299     114.8325     105.2467    1411.44799     112.2328     157.2989
   1427.05773     115.0426     105.5869    1411.43273     112.5774     157.5277
   1427.04247     115.1619     105.9240    1411.41747     112.8642     157.5828
   1427.02721     115.2636     106.1410    1411.40221     113.0165     158.2666
   1427.01195     115.5774     106.4564    1411.38695     113.3780     158.3088
   1426.99669     115.7674     106.8242    1411.37169     113.5434     158.7340
   1426.98144     116.0329     107.0924    1411.35644     113.9724     158.9114
   1426.96618     116.1604     107.3536    1411.34118     114.1970     159.5734
   1426.95092     116.2352     107.9857    1411.32592     114.4514     159.6250
   1426.93566     116.2554     108.1953    1411.31066     114.7202     159.8878
   1426.92040     116.5837     108.4217    1411.29540     115.1157     160.3860
   1426.90514     116.7764     108.6170    1411.28014     115.3107     160.4427
   1426.88988     116.8056     109.0509    1411.26488     115.5280     160.7954
   1426.87462     117.0075     109.4392    1411.24962     115.8614     161.0377
   1426.85937     117.3448     109.6086    1411.23437     115.9774     161.1570
   1426.84411     117.4843     109.9427    1411.21911     116.3321     161.6085
   1426.82885     117.4949     110.3245    1411.20385     116.5301     161.5355
   1426.81359     117.7322     110.5024    1411.18859     116.8778     162.0852
   1426.79833     117.7127     110.9321    1411.17333     117.0742     162.0950
   1426.78307     117.7310     111.1088    1411.15807     117.4059     162.5556
   1426.76781     118.2448     111.3638    1411.14281     117.5966     162.7156
   1426.75255     118.2129     111.8025    1411.12755     117.8442     162.8926
   1426.73729     118.3198     112.0001    1411.11229     117.9995     163.2068
   1426.72204     118.4139     112.0658    1411.09704     118.1713     163.2537
   1426.70678     118.6423     112.5914    1411.08178     118.4174     163.6697
   1426.69152     118.6643     112.8384    1411.06652     118.5952     163.6917
   1426.67626     118.8038     113.0783    1411.05126     118.8610     163.7706
   1426.66100     119.0034     113.3319    1411.03600     119.0670     163.9411
   1426.64574     119.0598     113.6876    1411.02074     119.3469     164.1834
   1426.63048     119.2053     114.1226    1411.00548     119.4638     164.5882
   1426.61522     119.4582     114.2332    1410.99022     119.7493     164.7633
   1426.59997     119.3334     114.3906    1410.97497     119.7218     164.6911
   1426.58471     119.7538     114.8307    1410.95971     120.1387     164.9667
   1426.56945     119.5108     114.9894    1410.94445     120.3999     165.1474
   1426.55419     119.6771     115.2043    1410.92919     120.5464     165.2420
   1426.53893     119.8753     115.4321    1410.91393     120.7283     165.4119
   1426.52367     119.8548     115.8388    1410.89867     120.8960     165.5814
   1426.50841     119.9632     116.0712    1410.88341     120.9471     165.6547
   1426.49315     119.9507     116.3912    1410.86815     121.2804     165.9406
   1426.47790     120.2085     116.5324    1410.85290     121.3720     166.1570
   1426.46264     120.2016     116.7704    1410.83764     121.6283     166.0301
   1426.44738     120.2335     117.1175    1410.82238     121.9326     166.0388
   1426.43212     120.4689     117.2903    1410.80712     122.0206     166.4092
   1426.41686     120.5908     117.6235    1410.79186     122.2581     166.6473
   1426.40160     120.4866     117.7387    1410.77660     122.3684     166.5847
   1426.38634     120.7219     118.0788    1410.76134     122.5118     166.7512
   1426.37108     120.7185     118.3736    1410.74608     122.7738     166.8797
   1426.35583     120.8754     118.6236    1410.73083     122.8885     166.9208
   1426.34057     120.7386     118.9760    1410.71557     123.1713     166.9690
   1426.32531     120.9532     119.2408    1410.70031     123.2071     166.9782
   1426.31005     121.1004     119.3280    1410.68505     123.4576     167.2771
   1426.29479     121.0776     119.5159    1410.66979     123.5297     167.2597
   1426.27953     121.1820     119.7905    1410.65453     123.8845     167.4517
   1426.26427     121.2985     120.1641    1410.63927     123.8254     167.4540
   1426.24901     121.4389     120.4104    1410.62401     124.2657     167.5249
   1426.23375     121.5717     120.3924    1410.60875     124.2694     167.7076
   1426.21850     121.4583     121.1013    1410.59350     124.4940     167.6136
   1426.20324     121.4818     121.1638    1410.57824     124.6261     167.5675
   1426.18798     121.4872     121.2259    1410.56298     124.7273     167.6696
   1426.17272     121.6838     121.7007    1410.54772     124.7968     167.9225
   1426.15746     121.6464     121.9637    1410.53246     125.0499     167.9072
   1426.14220     121.7255     122.0720    1410.51720     125.2003     167.9353
   1426.12694     121.8220     122.3985    1410.50194     125.4167     167.9444
   1426.11168     121.7855     122.6935    1410.48668     125.3946     167.7460
   1426.09643     122.0647     122.8440    1410.47143     125.6018     168.1007
   1426.08117     122.1240     123.1177    1410.45617     125.7409     168.2006
   1426.06591     122.1334     123.3625    1410.44091     125.7790     168.2292
   1426.05065     122.2113     123.5433    1410.42565     126.0732     168.2226
   1426.03539     122.3077     123.7642    1410.41039     126.1719     168.1814
   1426.02013     122.2819     124.0908    1410.39513     126.2476     168.2307
   1426.00487     122.5059     124.3314    1410.37987     126.3984     168.4071
   1425.98961     122.3641     124.5109    1410.36461     126.6098     168.2747
   1425.97436     122.4560     124.8565    1410.34936     126.8542     168.5931
   1425.95910     122.6325     124.9923    1410.33410     126.7388     168.5373
   1425.94384     122.7253     125.2194    1410.31884     126.9676     168.3418
   1425.92858     122.7290     125.4147    1410.30358     127.2177     168.6309
   1425.91332     122.7434     125.5431    1410.28832     127.3543     168.3590
   1425.89806     122.9511     125.7647    1410.27306     127.3951     168.3718
   1425.88280     122.8990     126.1720    1410.25780     127.5780     168.3371
   1425.86754     122.8586     126.2503    1410.24254     127.6729     168.3340
   1425.85229     122.9848     126.6868    1410.22729     128.0686     168.3763
   1425.83703     123.0134     126.7637    1410.21203     127.8239     168.2618
   1425.82177     123.1452     127.0138    1410.19677     128.0046     168.5788
   1425.80651     123.1320     127.2362    1410.18151     128.1833     168.3593
   1425.79125     123.2060     127.5762    1410.16625     128.3628     168.4452
   1425.77599     123.1039     128.0487    1410.15099     128.4047     168.5440
   1425.76073     123.4456     128.0565    1410.13573     128.5870     168.4372
   1425.74547     123.3756     128.2549    1410.12047     128.5284     168.2384
   1425.73021     123.5906     128.5228    1410.10521     128.7252     168.3636
   1425.71496     123.6357     128.9192    1410.08996     128.6730     168.4823
   1425.69970     123.6947     129.0444    1410.07470     129.0628     168.2355
   1425.68444     123.8604     129.2699    1410.05944     129.0425     168.2659
   1425.66918     123.7300     129.4786    1410.04418     129.2720     168.3418
   1425.65392     123.9504     129.6797    1410.02892     129.3783     168.4238
   1425.63866     123.9065     130.0238    1410.01366     129.4110     168.3377
   1425.62340     123.8868     130.1858    1409.99840     129.5865     168.4668
   1425.60814     124.1410     130.4105    1409.98314     129.7020     168.1964
   1425.59289     124.2268     130.5626    1409.96789     129.9142     168.4889
   1425.57763     124.2977     130.7242    1409.95263     129.8797     168.3602
   1425.56237     124.4600     130.9634    1409.93737     130.1872     168.4615
   1425.54711     124.3752     131.3620    1409.92211     130.2824     171.0331
   1425.53185     124.3532     131.4783    1409.90685     130.4488     168.2148
   1425.51659     124.5511     131.8009    1409.89159     130.3324     167.8689
   1425.50133     124.5212     132.1183    1409.87633     130.3011     168.2329
   1425.48607     124.8066     132.2193    1409.86107     130.5572     167.8491
