#     FILENAME=Skynet_59735_AP_-_ST3_81159_29887.A.raw.txt
#     BASENAME=Skynet_59735_AP_-_ST3_81159_29887
#      CONTROL=SKYNET
#     PROJCODE=Skynet_59735_AP_-_ST3_81159
#     DATAROOT=/raid/scratch/cyborg/SkynetData
#      DATADIR=/raid/scratch/cyborg
#     DATADIR2=/raid/scratch/cyborg/SkynetData/Skynet_59735_AP_-_ST3_81159/Cyb
#     SCANNAME=2022_05_26_22
#     SRC_NAME=AP_-_ST3
#     OBSERVER=socamrad_21318
#     DATE_OBS=2022-06-05T19:37:56.450
#        OBSID=81159
#      SCANNUM=29887
#          MJD=59735.8180145
#          UTC=70676
#     SCANTYPE=ralongmap
#     DATAMODE=HIRES
#     RECEIVER=Rx1_2
#      OBSFREQ=1421.8800
# Actual_FREQ1=1550.0000,
# Actual_FREQ2=1425.0000
#    LO1Tuning=6937.5000
#     RFFILTER=1300_1800
#        OBSBW=-15.6250
#     EFFBANDW=15.6250
#        NCHAN=1024
#    STARTCHAN=51
#     STOPCHAN=972
#         TINT=0.3000
#         TBIN=0.00419430
#       ACCLEN=2048 
#     DURATION=147.00
#     EXPOSURE=98.39
#        FOCUS=37.071
#       RA,DEC=05:30:44.34, 17:17:45.36
#      RA(deg)=85.44407
#     DEC(deg)=19.98307
#   WIDTH(deg)=5.6474x5.8823
#    AZIM(deg)=233.7448
#    ELEV(deg)=62.4715
#     COORDREF=RA_DEC_
#         HREF=85.5000
#         VREF=20.0000
#      RADESYS=FK5
#       OFFSYS=RADEC
#      EQUINOX=2000.00
#     IFATTENS=16.00, 19.00
#   BALANCELEV=1.200 
#   POWER_XLYR=[1.07, 1.38] 
#       VELDEF=RADI-OBS 
#     VELOCITY=0.000 
#         NPOL=2 
#      POLMODE=Linear 
#      POLTYPE=XXYY 
#      WARNING=None 
#     NOISECAL=HI 
#       PRECAL=2 
#      POSTCAL=2 
#     CRYOTEMP=15 
#      BOXTEMP=23 
#         TSYS=XX1:76.12, YY1:111.95
#         TSYS=XX2:36.62, YY2:49.27
#         TCAL=XX1:9.31, YY1:11.00
#         TCAL=XX2:9.18, YY2:10.14
# Raw Continuum 
#                
#UTC_Time(s)   Ra(deg)  Dec(deg)   Az(deg)   El(deg)        XX1        YY1        XX2        YY2  Cal   Sweeps 
70676.450000  82.68480   17.2959  233.5970   58.9722   883.6612   243.2918    90.0583   141.8777  -1    0  0 
70676.750000  82.68585   17.2959  233.5970   58.9722   902.5666   246.6629    89.5442   142.1576  -1    0  0 
70677.050000  82.68750   17.2961  233.5970   58.9724   898.3284   245.7510    89.5483   142.1339  -1    0  0 
70677.350000  82.68915   17.2960  233.5960   58.9727   892.8353   243.2245    89.5987   142.1437  -1    0  0 
70677.650000  82.69080   17.2960  233.5960   58.9727   893.4873   241.6678    89.7051   142.0563  -1    0  0 
70677.950000  82.69095   17.2961  233.5970   58.9724   902.8966   239.6676    89.6397   142.1540  -1    0  0 
70678.250000  82.69275   17.2961  233.5970   58.9724   906.8952   238.7782    89.5903   142.2428  -1    0  0 
70678.550000  82.69425   17.2960  233.5960   58.9727   918.7969   238.0558    89.5638   142.1762  -1    0  0 
70678.850000  82.69545   17.2963  233.5970   58.9726   938.9002   238.4108    89.5961   142.2902  -1    0  0 
70679.150000  82.69650   17.2963  233.5970   58.9726   938.7043   239.1312    89.5897   141.9442  -1    0  0 
70679.450000  82.69860   17.2960  233.5960   58.9727   921.2417   238.7553    89.4621   142.0660  -1    0  0 
70679.750000  82.69860   17.2963  233.5970   58.9726   915.6845   239.6758    89.5563   141.9710  -1    0  0 
70680.050000  82.70070   17.2963  233.5970   58.9726   907.9802   239.5021    89.6223   142.1793   0    0  0 
70680.350000  82.70160   17.2963  233.5970   58.9727   899.3868   240.7792    89.5176   142.2882   0    0  0 
70680.650000  82.70325   17.2963  233.5970   58.9726   895.1965   240.7367    89.5384   142.2754   0    0  0 
70680.950000  82.70400   17.2963  233.5970   58.9726   907.0926   240.3102    89.5269   142.2624   0    0  0 
70681.250000  82.70595   17.2964  233.5970   58.9727   915.2764   240.9088    89.5145   142.0574   0    0  0 
70681.550000  82.70640   17.2963  233.5970   58.9726   913.7776   244.1569    89.5802   142.0711   0    0  0 
70681.850000  82.70820   17.2964  233.5970   58.9727   909.5404   243.6435    89.6853   142.2411   0    0  0 
70682.150000  82.70895   17.2963  233.5970   58.9726   908.2573   241.3070    89.6613   142.3636   0    0  0 
70682.450000  82.71135   17.2960  233.5960   58.9727   908.9366   239.9172    89.6692   142.3256   0    0  0 
70682.750000  82.71195   17.2963  233.5970   58.9726   905.4110   237.4227    89.6417   142.2098   0    0  0 
70683.050000  82.71315   17.2963  233.5970   58.9726   895.7501   236.8908    89.5952   142.1640   0    0  0 
70683.350000  82.71435   17.2963  233.5970   58.9726   892.7040   236.1388    89.5526   142.3464   0    0  0 
70683.650000  82.71615   17.2963  233.5970   58.9726   892.0931   234.8201    89.5046   142.2980   0    0  0 
70683.950000  82.71690   17.2963  233.5970   58.9726   894.2435   234.3691    89.4965   142.0959   0    0  0 
70684.250000  82.71855   17.2964  233.5970   58.9727   897.2972   235.3962    89.3857   142.1794   0    0  1 
70684.550000  82.71960   17.2963  233.5970   58.9726   895.7536   237.3255    89.5292   142.1962   0    0  1 
70684.850000  82.72110   17.2963  233.5970   58.9726   891.5187   235.9954    89.3743   142.3071   0    0  1 
70685.150000  82.72155   17.2963  233.5970   58.9726   890.9347   236.1847    89.5574   141.9569   0    0  1 
70685.450000  82.72335   17.2963  233.5970   58.9726   880.1335   233.5657    89.5446   141.8080   0    0  1 
70685.750000  82.72470   17.2963  233.5970   58.9726   902.7486   233.8423    89.3532   141.7264   0    0  1 
70686.050000  82.86435   17.3360  233.4560   59.0898   942.8018   221.4076    88.3369   139.3893   0    0  1 
70686.350000  83.03355   17.3993  233.3020   59.2438   673.7782   215.4041    87.8004   135.0432   0    0  1 
70686.650000  83.17980   17.4580  233.1730   59.3799   446.4484   309.2369    89.1337   136.5088   0    0  1 
70686.950000  83.94180   17.6730  232.3680   60.0190   399.1071   272.6057    89.7868   141.1762   0    0  1 
70687.250000  84.30690   17.7057  231.8810   60.2703   365.2121   204.4862    87.9713   142.8038   0    0  1 
70687.550000  84.86355   17.7104  231.0670   60.6159   286.0940   235.6793    85.7465   139.2643   0    0  1 
70687.850000  85.08270   17.7058  230.7340   60.7458   225.2055   202.2343    84.8035   135.3334   0    0  1 
70688.150000  85.53420   17.6933  230.0360   61.0093   173.0885   138.1443    85.0015   133.5408   0    0  1 
70688.450000  85.81890   17.6840  229.5890   61.1729   142.5456   157.7988    84.9575   132.9285   0    0  1 
70688.750000  86.33400   17.6745  228.7790   61.4716   612.2091   499.9747    84.6181   133.9393   0    0  1 
70689.050000  86.85105   17.6737  227.9630   61.7746  1208.4244   774.8063    84.7103   135.2342   0    0  1 
70689.350000  86.99055   17.6755  227.7430   61.8573  1097.9265   566.1507    84.8683   135.5388   0    0  1 
70689.650000  87.29205   17.6807  227.2660   62.0359   687.8723   232.3525    85.6613   135.6368   0    0  1 
70689.950000  87.79860   17.6884  226.4510   62.3327   319.6250   218.0297    87.3182   136.5539   0    0  0 
70690.250000  88.00095   17.6902  226.1200   62.4490   294.9410   210.0344    87.5119   137.7552   0    0  0 
70690.550000  88.39605   17.6824  225.4530   62.6650   247.6711   205.8917    87.0130   137.7340   0    0  0 
70690.850000  88.48755   17.5526  225.1350   62.6102   243.1127   195.4396    86.7796   137.8014   0    0  0 
70691.150000  88.48335   17.5521  225.1430   62.6070   248.4686   191.0310    86.8094   137.7350   0    0  0 
70691.450000  88.37625   17.6066  225.3960   62.5901   277.1106   188.5206    87.2821   137.6299   0    0  0 
70691.750000  88.32975   17.6319  225.5080   62.5840   284.2250   190.2293    87.3860   137.9195   0    0  0 
70692.050000  88.32570   17.6324  225.5180   62.5812   288.5906   188.9945    87.4160   137.5456   0    1  1 
70692.350000  88.32480   17.6328  225.5220   62.5804   295.0698   188.6056    87.3405   137.0929   0    1  1 
70692.650000  88.32315   17.6327  225.5270   62.5785   303.1542   188.2914    87.2981   137.2059   0    1  1 
70692.950000  88.32345   17.6332  225.5290   62.5785   306.6021   187.1220    87.3309   137.4415   0    1  1 
70693.250000  88.32390   17.6330  225.5290   62.5783   304.2521   187.8565    87.2827   137.7727   0    1  1 
70693.550000  88.31865   17.6322  225.5400   62.5735   298.1255   186.9763    87.3437   137.4936   0    1  1 
70693.850000  88.18500   17.5816  225.7000   62.4568   250.8399   183.6726    87.0903   136.5004   0    1  1 
70694.150000  87.80925   17.4154  226.1120   62.1090   655.2570   174.7979    85.7064   135.7725   0    1  1 
70694.450000  87.09255   17.2128  227.0210   61.5349  1306.8209   446.3336    84.3661   134.6512   0    1  1 
70694.750000  87.09240   17.2128  227.0210   61.5349  1355.4093   627.0005    84.5228   134.4045   0    1  1 
70695.050000  86.46255   17.1605  227.9570   61.1260   750.2657   362.1038    84.4428   133.7438   0    1  1 
70695.350000  85.99680   17.1527  228.6750   60.8447   365.0061   137.4241    84.1279   134.0232   0    1  1 
70695.650000  85.85625   17.1570  228.8980   60.7645   292.1906   144.6770    84.4926   135.7838   0    1  1 
70695.950000  85.24800   17.1613  229.8330   60.4027   259.0610   201.4094    85.6436   136.2105   0    1  1 
70696.250000  84.93075   17.1727  230.3250   60.2192   397.4055   248.5896    87.1392   135.9242   0    1  1 
70696.550000  84.63630   17.1807  230.7740   60.0456   448.1066   280.7234    91.0382   135.3536   0    1  1 
70696.850000  84.24405   17.1979  231.3740   59.8175   390.0957   315.5924    92.3181   134.3608   0    1  1 
70697.150000  84.02190   17.2108  231.7150   59.6896   438.9796   185.8440    89.6537   133.9137   0    1  1 
70697.450000  83.39595   17.2388  232.6510   59.3202   658.6583   188.3869    88.3839   136.4020   0    1  1 
70697.750000  83.13990   17.2504  233.0290   59.1677   814.2050   241.9957    89.4297   140.9706   0    1  0 
70698.050000  82.57845   17.2778  233.8500   58.8318   603.6558   205.2686    89.7108   139.9955   0    1  0 
70698.350000  82.46025   17.3026  234.0460   58.7746   565.3827   166.9860    87.5949   136.2111   0    1  0 
70698.650000  82.35975   17.5697  234.5330   58.9080   613.2490   173.6253    85.5409   133.2823   0    1  0 
70698.950000  82.42485   17.7019  234.6180   59.0472   635.9966   180.2624    84.7068   132.7401   0    1  0 
70699.250000  82.54455   17.8426  234.6410   59.2271   628.4775   169.6458    84.7007   132.8491   0    1  0 
70699.550000  82.59885   17.9075  234.6530   59.3095   610.9532   162.9459    84.9618   133.0231   0    1  0 
70699.850000  82.63260   17.9484  234.6630   59.3603   588.4177   158.9243    85.0416   132.8964   0    1  0 
70700.150000  82.64745   17.9649  234.6670   59.3809   578.8383   156.9730    85.0986   133.2455   0    1  0 
70700.450000  82.65585   17.9721  234.6660   59.3911   571.5310   159.4568    85.2111   133.4816   0    2  1 
70700.750000  82.66305   17.9786  234.6670   59.3995   570.9632   157.6799    85.2889   133.3520   0    2  1 
70701.050000  82.66620   17.9808  234.6670   59.4024   567.2720   157.8247    85.2895   133.2675   0    2  1 
70701.350000  82.66710   17.9815  234.6680   59.4029   564.8925   156.9521    85.2984   133.2732   0    2  1 
70701.650000  82.66995   17.9813  234.6660   59.4036   561.9122   158.9002    85.3680   133.5228   0    2  1 
70701.950000  82.77660   18.0147  234.5650   59.4956   497.8771   170.6490    86.4670   132.7753   0    2  1 
70702.250000  82.82085   18.0295  234.5240   59.5346   442.0347   235.5316    89.3202   133.5933   0    2  1 
70702.550000  83.47185   18.2827  233.9510   60.1376   369.0819   198.6096    88.8417   136.9830   0    2  1 
70702.850000  83.65215   18.3241  233.7510   60.2827   256.8443   130.7925    86.3003   137.9284   0    2  1 
70703.150000  84.35745   18.3840  232.8150   60.7716   265.0940   121.5759    85.5270   140.2532   0    2  1 
70703.450000  84.68550   18.3814  232.3300   60.9743   347.4943   119.5023    85.7841   139.4189   0    2  1 
70703.750000  85.12545   18.3748  231.6670   61.2414   346.5621   124.9757    85.1936   135.1529   0    2  1 
70704.050000  85.43730   18.3672  231.1870   61.4271   242.0114   118.4802    85.4925   134.0476   0    2  1 
70704.350000  85.72170   18.3580  230.7420   61.5935   129.7966   156.6498    86.1265   134.5900   0    2  1 
70704.650000  86.16645   18.3479  230.0430   61.8548   142.7412   233.8749    85.8755   135.4755   0    2  1 
70704.950000  86.46990   18.3411  229.5600   62.0316   532.2390   529.1560    85.7095   136.3897   0    2  1 
70705.250000  86.88615   18.3387  228.8990   62.2772  1140.2507   763.9532    86.2737   136.1219   0    2  1 
70705.550000  87.18660   18.3380  228.4170   62.4539  1222.6757   557.6283    86.5387   135.7094   0    2  1 
70705.850000  87.61905   18.3363  227.7140   62.7052   749.7100   237.2253    87.1166   136.3213   0    2  1 
70706.150000  87.88905   18.3386  227.2740   62.8634   327.9925   356.3122    88.1704   138.6538   0    2  0 
70706.450000  88.02525   18.3402  227.0510   62.9431   369.0406   458.5913    88.0881   140.9207   0    2  0 
70706.750000  88.50630   18.2521  226.1310   63.1468   352.2493   402.3776    87.6080   140.0920   0    2  0 
70707.050000  88.51035   18.2129  226.0730   63.1173   327.3767   397.9163    87.6182   140.6351   0    2  0 
70707.350000  88.45170   18.2357  226.2060   63.1010   328.3001   429.5563    88.0595   140.1763   0    2  0 
70707.650000  88.40535   18.2612  226.3190   63.0947   313.8094   432.3692    88.2113   139.6977   0    2  0 
70707.950000  88.32885   18.3064  226.5110   63.0861   308.7984   421.6023    88.2598   139.8100   0    3  1 
70708.250000  88.32930   18.3066  226.5120   63.0861   302.0731   422.4290    88.2537   140.2318   0    3  1 
70708.550000  88.32405   18.3077  226.5250   63.0830   292.2115   418.7023    88.3231   140.1770   0    3  1 
70708.850000  88.32255   18.3083  226.5300   63.0821   285.7034   411.9926    88.2560   140.1890   0    3  1 
70709.150000  88.32330   18.3091  226.5330   63.0821   288.1389   410.2820    88.1528   139.8533   0    3  1 
70709.450000  88.32450   18.3091  226.5330   63.0821   280.4415   398.7478    88.2308   139.7090   0    3  1 
70709.750000  88.31850   18.3092  226.5440   63.0784   315.8556   334.4148    87.8054   138.4499   0    3  1 
70710.050000  87.95835   18.1657  226.9570   62.7558   701.6730   210.0227    86.5149   136.5704   0    3  1 
70710.350000  87.59115   18.0081  227.3540   62.4175  1192.5277   653.2552    85.2555   136.4624   0    3  1 
70710.650000  87.41190   17.9575  227.5800   62.2729  1013.8700   759.4014    85.0613   136.7951   0    3  1 
70710.950000  86.57265   17.8339  228.7640   61.6809   274.1451   334.1009    84.9643   135.1074   0    3  1 
70711.250000  86.33325   17.8294  229.1350   61.5346   139.4983   147.5925    85.4403   133.5250   0    3  1 
70711.550000  85.96740   17.8232  229.6970   61.3101   212.6766   145.6643    85.2090   133.5824   0    3  1 
70711.850000  85.65030   17.8255  230.1890   61.1197   267.5488   206.0500    84.9263   135.3471   0    3  1 
70712.150000  85.36200   17.8313  230.6360   60.9487   350.7724   174.9010    85.5811   140.6844   0    3  1 
70712.450000  84.90270   17.8475  231.3490   60.6789   326.0999   165.2644    87.0933   143.9511   0    3  1 
70712.750000  84.75525   17.8537  231.5770   60.5924   308.9513   224.7540    87.9077   141.7090   0    3  1 
70713.050000  83.96430   17.8846  232.7780   60.1220   373.2719   239.6588    87.8300   136.5608   0    3  1 
70713.350000  83.73915   17.8945  233.1160   59.9874   444.9781   293.5466    87.9274   133.4023   0    3  1 
70713.650000  83.25990   17.9157  233.8270   59.6989   566.8230   210.6130    86.9771   132.9947   0    3  1 
70713.950000  82.95135   17.9316  234.2820   59.5133   613.2042   156.0410    85.3241   133.3803   0    3  0 
70714.250000  82.39590   17.9656  235.0970   59.1804   577.0561   111.7439    85.7778   135.1871   0    3  0 
70714.550000  82.30440   18.0003  235.2690   59.1463   555.9937   107.8114    87.2879   138.0392   0    3  0 
70714.850000  82.29945   18.2571  235.6220   59.3300   504.5589    90.1701    88.8034   138.3959   0    3  0 
70715.150000  82.43190   18.4081  235.6460   59.5258   475.8306    81.9639    88.8645   136.6945   0    3  0 
70715.450000  82.52340   18.5099  235.6610   59.6585   457.5812   103.5793    88.0272   135.2226   0    3  0 
70715.750000  82.61880   18.6129  235.6730   59.7945   457.1259   121.3933    87.5593   134.7599   0    3  0 
70716.050000  82.63590   18.6278  235.6710   59.8159   459.5411   134.4911    87.3371   134.5891   0    3  0 
70716.350000  82.64145   18.6349  235.6740   59.8243   461.2945   141.5557    87.0636   134.1983   0    3  0 
70716.650000  82.65540   18.6481  235.6750   59.8419   461.8244   144.9799    86.9329   134.0060   0    4  1 
70716.950000  82.66305   18.6542  235.6750   59.8503   465.1579   147.4948    86.9422   133.9617   0    4  1 
70717.250000  82.66635   18.6557  235.6740   59.8528   462.9332   148.3164    86.8422   134.1523   0    4  1 
70717.550000  82.66860   18.6568  235.6740   59.8544   459.6599   147.3751    86.8130   133.6517   0    4  1 
70717.850000  82.67100   18.6570  235.6730   59.8551   459.7578   150.0339    86.7790   133.6005   0    4  1 
70718.150000  82.76940   18.6847  235.5780   59.9380   510.9233   244.9000    86.1094   132.8984   0    4  1 
70718.450000  82.76940   18.6847  235.5780   59.9380   516.7178   351.9582    85.5281   133.2330   0    4  1 
70718.750000  83.17530   18.8312  235.2170   60.3071   237.7399   180.8643    85.5831   134.1419   0    4  1 
70719.050000  83.97750   19.0400  234.3710   60.9755   162.0051   133.8640    85.3397   133.6879   0    4  1 
70719.350000  84.15315   19.0611  234.1480   61.1029   179.0195   117.6778    85.2552   133.5950   0    4  1 
70719.650000  84.51765   19.0942  233.6640   61.3590   219.6524   123.9892    86.7674   134.7144   0    4  1 
70719.950000  85.14000   19.0935  232.7430   61.7497   150.4310   119.3154    88.0088   138.5254   0    4  1 
70720.250000  85.43175   19.0897  232.2990   61.9287   103.7785    86.5619    87.0116   142.8348   0    4  1 
70720.550000  85.74030   19.0824  231.8200   62.1143   157.4184    99.4540    85.9034   143.3360   0    4  1 
70720.850000  86.25570   19.0678  231.0050   62.4195   229.3385   138.4032    85.9880   140.6983   0    4  1 
70721.150000  86.46420   19.0631  230.6730   62.5428   322.2902   200.5103    86.5158   138.4240   0    4  1 
70721.450000  86.60115   19.0589  230.4520   62.6226   712.8558   338.4601    88.0089   136.4751   0    4  1 
70721.750000  87.32625   19.0413  229.2700   63.0444   870.9711   379.6322    88.7672   136.7954   0    4  1 
70722.050000  87.46140   19.0398  229.0490   63.1235   950.0191   215.1570    88.4390   138.6543   0    4  1 
70722.350000  87.73245   19.0394  228.6060   63.2833   712.4003   228.5333    88.5074   141.6620   0    4  0 
70722.650000  88.29510   19.0465  227.6830   63.6181   453.8443   446.0704    89.1966   144.9289   0    4  0 
70722.950000  88.46850   19.0017  227.3300   63.6829   441.8691   507.6938    89.4852   145.4272   0    4  0 
70723.250000  88.48305   18.8848  227.1470   63.5975   421.5287   496.7055    89.6176   145.4509   0    4  0 
70723.550000  88.46175   18.9026  227.2090   63.5988   386.5996   443.2425    89.4428   144.7517   0    4  0 
70723.850000  88.33995   18.9734  227.5150   63.5834   385.2358   387.2041    89.2155   144.1427   0    4  0 
70724.150000  88.32825   18.9859  227.5540   63.5858   395.4521   371.0340    89.2292   144.1543   0    5  1 
70724.450000  88.32450   18.9851  227.5620   63.5820   411.2108   378.0094    89.0834   143.8860   0    5  1 
70724.750000  88.32390   18.9861  227.5660   63.5818   421.6452   374.4111    89.1133   144.1107   0    5  1 
70725.050000  88.32405   18.9865  227.5690   63.5813   427.4817   377.5305    89.1109   144.1419   0    5  1 
70725.350000  88.32420   18.9868  227.5710   63.5810   432.2260   377.3228    89.1579   144.2260   0    5  1 
