#     FILENAME=Skynet_60333_barnard_33-nb_107271_56634.A.cal.txt
#     BASENAME=Skynet_60333_barnard_33-nb_107271_56634
#      CONTROL=SKYNET
#     PROJCODE=Skynet_60333_barnard_33-nb_107271
#     DATAROOT=/raid/scratch/cyborg/SkynetData
#      DATADIR=/raid/scratch/cyborg
#     DATADIR2=/raid/scratch/cyborg/SkynetData/Skynet_60333_barnard_33-nb_1072
#     SCANNAME=2019_06_26_10
#     SRC_NAME=barnard_33-nb
#     OBSERVER=socamrad_21318
#     DATE_OBS=2024-01-24T03:19:52.000
#        OBSID=107271
#      SCANNUM=56634
#          MJD=60333.1387963
#          UTC=11992
#     SCANTYPE=ralongmap
#     DATAMODE=HIRES
#     RECEIVER=Rx1_2
#      OBSFREQ=1395.0000
# Actual_FREQ1=1421.8850,
# Actual_FREQ2=1406.2600
#    LO1Tuning=6856.2600
#     RFFILTER=1355_1435
#        OBSBW=-15.6250
#     EFFBANDW=15.6250
#        NCHAN=1024
#    STARTCHAN=51
#     STOPCHAN=972
#         TINT=0.1342
#         TBIN=0.00419430
#       ACCLEN=2048 
#     DURATION=176.09
#     EXPOSURE=118.38
#        FOCUS=37.049
#       RA,DEC=05:32:14.91, -04:40:06.56
#      RA(deg)=85.17580
#     DEC(deg)=-2.44630
#   WIDTH(deg)=4.4307x4.8706
#    AZIM(deg)=191.5431
#    ELEV(deg)=48.3010
#     COORDREF=RA_DEC_
#         HREF=85.2454
#         VREF=-2.4583
#      RADESYS=FK5
#       OFFSYS=AZEL
#      EQUINOX=2000.00
#     IFATTENS=11.00, 12.00
#   BALANCELEV=1.200 
#   POWER_XLYR=[1.72, 2.23] 
#       VELDEF=RADI-OBS 
#     VELOCITY=0.000 
#         NPOL=2 
#      POLMODE=Linear 
#      POLTYPE=XXYY 
#      WARNING=None 
#     NOISECAL=HI 
#       PRECAL=2 
#      POSTCAL=2 
#     CRYOTEMP=289 
#      BOXTEMP=23 
#         TSYS=XX1:133.61, YY1:135.99
#         TSYS=XX2:122.35, YY2:148.87
#         TCAL=XX1:9.17, YY1:10.07
#         TCAL=XX2:9.16, YY2:9.99
# Calibrated Continuum 
#                
#UTC_Time(s)   Ra(deg)  Dec(deg)   Az(deg)   El(deg)        XX1        YY1        XX2        YY2  Cal   Sweeps 
11992.000000  83.06220   -4.6685  193.4920   45.8379   136.3469   137.4065   123.8188   148.3731  -1    0  0 
11992.134218  83.06220   -4.6685  193.4920   45.8379   142.0545   143.7554   129.4765   154.7100   1    0  0 
11992.268436  83.06295   -4.6685  193.4920   45.8379   141.9817   143.4533   129.4322   154.4229   1    0  0 
11992.402654  83.06370   -4.6683  193.4920   45.8381   145.0532   147.0712   132.6061   157.6761   1    0  0 
11992.536872  83.06370   -4.6683  193.4920   45.8381   144.8996   147.0837   132.4600   157.9088   1    0  0 
11992.671090  83.06475   -4.6685  193.4920   45.8379   144.8197   147.1625   132.5481   157.9785   1    0  0 
11992.805308  83.06550   -4.6683  193.4920   45.8381   144.9288   147.0129   132.4530   157.7587   1    0  0 
11992.939526  83.06550   -4.6683  193.4920   45.8381   145.0087   147.1882   132.3378   158.0775   1    0  0 
11993.073744  83.06640   -4.6683  193.4920   45.8381   144.7996   147.0976   132.3376   157.9833   1    0  0 
11993.207962  83.06745   -4.6682  193.4920   45.8382   144.7842   146.7761   132.5613   157.8409   1    0  0 
11993.342180  83.06745   -4.6682  193.4920   45.8382   145.4031   147.0434   132.4170   157.9110   1    0  0 
11993.476398  83.06805   -4.6685  193.4920   45.8379   144.9463   147.1576   132.4745   157.7710   1    0  0 
11993.610616  83.06895   -4.6683  193.4920   45.8381   145.0454   147.0574   132.4118   157.8917   1    0  0 
11993.744834  83.06895   -4.6683  193.4920   45.8381   144.8629   146.9135   132.4502   157.8911   1    0  0 
11993.879052  83.06970   -4.6685  193.4920   45.8379   144.9015   146.9701   132.5373   157.7740   1    0  0 
11994.013270  83.07060   -4.6682  193.4920   45.8382   144.1967   146.3048   131.8082   157.1788  -1    0  0 
11994.147488  83.07060   -4.6682  193.4920   45.8382   138.4811   139.8242   126.0428   150.6588  -1    0  0 
11994.281706  83.07150   -4.6683  193.4920   45.8381   137.9096   139.3086   125.5057   150.1204  -1    0  0 
11994.415924  83.07225   -4.6683  193.4920   45.8381   135.4985   136.5578   123.1187   147.6093   0    0  0 
11994.550142  83.07225   -4.6683  193.4920   45.8381   135.5530   136.6306   123.0700   147.4980   0    0  0 
11994.684360  83.07300   -4.6685  193.4920   45.8379   135.3401   136.2593   123.1450   147.5403   0    0  0 
11994.818578  83.07300   -4.6685  193.4920   45.8379   135.3376   136.3577   123.0477   147.5317   0    0  0 
11994.952796  83.07405   -4.6685  193.4920   45.8379   135.4984   136.6954   123.1201   147.4615   0    0  0 
11995.087014  83.07465   -4.6685  193.4920   45.8379   135.2911   136.5890   122.9068   147.7040   0    0  0 
11995.221232  83.07465   -4.6685  193.4920   45.8379   135.3474   136.5531   123.0514   147.3140   0    0  0 
11995.355450  83.07570   -4.6683  193.4920   45.8381   135.2457   136.6342   122.8441   147.3869   0    0  0 
11995.489668  83.07675   -4.6683  193.4920   45.8381   135.3070   136.4627   122.9856   147.4222   0    0  0 
11995.623886  83.07675   -4.6683  193.4920   45.8381   135.3026   136.3201   122.8761   147.2940   0    0  0 
11995.758104  83.07750   -4.6684  193.4920   45.8379   135.5874   136.3201   123.1020   147.3389   0    0  0 
11995.892322  83.07840   -4.6682  193.4920   45.8381   135.4944   136.2491   122.9735   147.3753   0    0  0 
11996.026540  83.07840   -4.6682  193.4920   45.8381   135.4877   136.2483   123.0261   147.5802   0    0  0 
11996.160758  83.07930   -4.6684  193.4920   45.8379   135.4696   136.3964   122.9782   147.5947   0    0  0 
11996.294976  83.07990   -4.6682  193.4920   45.8381   135.6290   136.3833   123.1480   147.5998   0    0  0 
11996.429194  83.07990   -4.6682  193.4920   45.8381   135.3589   136.4491   122.8803   147.3156   0    0  0 
11996.563412  83.08095   -4.6684  193.4920   45.8379   135.6365   136.5984   122.9525   147.4425   0    0  0 
11996.697630  83.08170   -4.6682  193.4920   45.8381   135.4147   136.4522   123.1578   147.5788   0    0  0 
11996.831848  83.08170   -4.6682  193.4920   45.8381   135.3232   136.4481   122.9547   147.3760   0    0  1 
11996.966066  83.08275   -4.6682  193.4920   45.8381   135.3368   136.3751   122.7989   147.5406   0    0  1 
11997.100284  83.08350   -4.6682  193.4920   45.8381   135.4052   136.5858   122.7921   147.5611   0    0  1 
11997.234502  83.08350   -4.6682  193.4920   45.8381   135.3448   136.5597   122.9506   147.7100   0    0  1 
11997.368720  83.08410   -4.6684  193.4920   45.8379   135.2776   136.4410   122.8636   147.4799   0    0  1 
11997.502938  83.08515   -4.6682  193.4920   45.8381   135.2556   136.6245   122.8109   147.2470   0    0  1 
11997.637156  83.08515   -4.6682  193.4920   45.8381   135.2170   136.5261   122.9467   147.7199   0    0  1 
11997.771374  83.08620   -4.6682  193.4920   45.8381   135.2616   136.5094   122.7187   147.5966   0    0  1 
11997.905592  83.08620   -4.6682  193.4920   45.8381   135.3055   136.4528   122.7955   147.6446   0    0  1 
11998.039810  83.08800   -4.6682  193.4920   45.8381   135.4355   136.2883   122.8035   147.4773   0    0  1 
11998.174028  83.08800   -4.6682  193.4920   45.8381   135.3943   136.6044   122.9887   147.4476   0    0  1 
11998.308246  83.08800   -4.6682  193.4920   45.8381   135.3689   136.3167   123.0357   147.6671   0    0  1 
11998.442464  83.09070   -4.6685  193.4900   45.8381   135.4931   136.6678   123.0537   147.4064   0    0  1 
11998.576682  83.09070   -4.6685  193.4900   45.8381   135.2750   136.5099   122.8614   147.7844   0    0  1 
11998.710900  83.09070   -4.6685  193.4900   45.8381   135.3861   136.4549   122.9033   147.6049   0    0  1 
11998.845118  83.24565   -4.4935  193.3210   46.0387   135.2771   136.1791   123.0776   147.5617   0    0  1 
11998.979336  83.39295   -4.4361  193.1290   46.1220   135.3527   136.6078   122.8631   147.7244   0    0  1 
11999.113554  83.39295   -4.4361  193.1290   46.1220   135.2394   136.6570   122.8721   147.8543   0    0  1 
11999.247772  83.39295   -4.4361  193.1290   46.1220   135.1856   136.7048   122.9484   147.6509   0    0  1 
11999.381990  83.59335   -4.4101  192.8530   46.1836   135.2579   136.4805   122.8489   147.6440   0    0  1 
11999.516208  83.59335   -4.4101  192.8530   46.1836   135.2288   136.4619   122.8149   147.5643   0    0  1 
11999.650426  83.88045   -4.3859  192.4530   46.2578   135.0952   136.5209   122.6914   147.6878   0    0  1 
11999.784644  83.88045   -4.3859  192.4530   46.2578   135.2030   136.6570   122.7185   147.6292   0    0  1 
11999.918862  83.88045   -4.3859  192.4530   46.2578   135.2804   136.5550   122.8532   147.5159   0    0  1 
12000.053080  84.40605   -4.3906  191.7050   46.3414   135.2999   136.5333   122.7700   147.6050   0    0  1 
12000.187298  84.67305   -4.3966  191.3230   46.3783   135.3234   136.3110   122.6881   147.6177   0    0  1 
12000.321516  84.67305   -4.3966  191.3230   46.3783   135.2729   136.4325   122.6299   147.5868   0    0  1 
12000.455734  84.67305   -4.3966  191.3230   46.3783   135.2990   136.3481   122.8889   147.2247   0    0  1 
12000.589952  85.20780   -4.4178  190.5550   46.4390   135.2038   136.0735   122.7594   147.1457   0    0  1 
12000.724170  85.20780   -4.4178  190.5550   46.4390   135.2023   136.0182   122.6502   147.2884   0    0  1 
12000.858388  85.31145   -4.4213  190.4060   46.4507   135.2344   136.1179   122.4890   147.1154   0    0  1 
12000.992606  85.46550   -4.4287  190.1840   46.4655   134.9834   136.1439   122.5166   147.4247   0    0  1 
12001.126824  85.46550   -4.4287  190.1840   46.4655   135.1012   136.2056   122.3978   147.3434   0    0  1 
12001.261042  85.69365   -4.4400  189.8550   46.4864   135.1425   136.2530   122.4137   147.4074   0    0  1 
12001.395260  85.69365   -4.4400  189.8550   46.4864   135.1329   136.2208   122.6459   147.3149   0    0  1 
12001.529478  86.25615   -4.4550  189.0450   46.5462   135.1055   135.9122   122.5000   147.3594   0    0  0 
12001.663696  86.48730   -4.4602  188.7120   46.5699   135.2317   135.9688   122.6244   147.0661   0    0  0 
12001.797914  86.48730   -4.4602  188.7120   46.5699   135.0539   135.9933   122.6017   147.2098   0    0  0 
12001.932132  86.48730   -4.4602  188.7120   46.5699   135.3840   136.1751   122.5876   147.2303   0    0  0 
12002.066350  86.74065   -4.4626  188.3470   46.5980   135.2370   136.1450   122.3847   147.2376   0    0  0 
12002.200568  86.74065   -4.4626  188.3470   46.5980   134.9951   136.2954   122.4588   147.5082   0    0  0 
12002.334786  86.96955   -4.5333  188.0060   46.5541   135.0346   136.1708   122.3556   147.2425   0    0  0 
12002.469004  87.17280   -4.5117  187.7170   46.5982   135.1494   136.4362   122.4722   147.4866   0    0  0 
12002.603222  87.17280   -4.5117  187.7170   46.5982   135.2289   136.1636   122.4404   147.3356   0    0  0 
12002.737440  87.33510   -4.4972  187.4860   46.6301   135.3217   135.9112   122.6460   147.2695   0    0  0 
12002.871658  87.40080   -4.5053  187.3910   46.6289   135.1983   135.9963   122.6457   147.2343   0    0  0 
12003.005876  87.40080   -4.5053  187.3910   46.6289   135.1562   136.0053   122.7228   147.3325   0    0  0 
12003.140094  87.43365   -4.4894  187.3470   46.6481   134.9952   135.7984   122.6070   147.3142   0    0  0 
12003.274312  87.42405   -4.4888  187.3620   46.6476   135.0782   135.7596   122.7722   146.9917   0    0  0 
12003.408530  87.42405   -4.4888  187.3620   46.6476   135.2458   135.9780   122.8043   147.1299   0    1  1 
12003.542748  87.43650   -4.4798  187.3470   46.6577   135.2089   136.0011   122.6006   147.0473   0    1  1 
12003.676966  87.44025   -4.4775  187.3430   46.6603   135.1683   136.0140   122.5521   147.1756   0    1  1 
12003.811184  87.44025   -4.4775  187.3430   46.6603   135.0454   136.0904   122.5265   147.1488   0    1  1 
12003.945402  87.44355   -4.4798  187.3390   46.6583   135.1610   135.8954   122.6740   147.0845   0    1  1 
12004.079620  87.44805   -4.4754  187.3340   46.6631   135.1359   135.9762   122.5530   147.3408   0    1  1 
12004.213838  87.44805   -4.4754  187.3340   46.6631   135.1836   135.9604   122.6024   147.0349   0    1  1 
12004.348056  87.44895   -4.4768  187.3340   46.6617   135.1538   135.8834   122.5978   147.3365   0    1  1 
12004.482274  87.45285   -4.4758  187.3310   46.6629   135.2894   135.9540   122.7129   147.1541   0    1  1 
12004.616492  87.45285   -4.4758  187.3310   46.6629   135.3088   136.0555   122.6397   147.3181   0    1  1 
12004.750710  87.45540   -4.4754  187.3290   46.6634   135.0058   136.0307   122.5804   147.0709   0    1  1 
12004.884928  87.45540   -4.4754  187.3290   46.6634   135.2757   136.0760   122.5719   147.1972   0    1  1 
12005.019146  87.45540   -4.4754  187.3290   46.6634   134.9052   136.2173   122.5051   147.5153   0    1  1 
12005.153364  87.43710   -4.4970  187.3540   46.6399   134.9243   136.1476   122.5412   147.2598   0    1  1 
12005.287582  87.43710   -4.4970  187.3540   46.6399   134.8922   136.1144   122.4872   147.3547   0    1  1 
12005.421800  87.43710   -4.4970  187.3540   46.6399   134.8974   135.8984   122.4420   147.2347   0    1  1 
12005.556018  87.32310   -4.6019  187.5040   46.5233   134.9979   135.9005   122.5149   147.1701   0    1  1 
12005.690236  87.01590   -4.6677  187.9390   46.4239   135.1486   135.9245   122.4419   147.2204   0    1  1 
12005.824454  87.01590   -4.6677  187.9390   46.4239   134.8455   135.9987   122.4057   147.1092   0    1  1 
12005.958672  87.01590   -4.6677  187.9390   46.4239   134.6548   136.0025   122.2181   147.1079   0    1  1 
12006.092890  86.71425   -4.7036  188.3690   46.3532   134.7068   135.9918   122.1835   147.1507   0    1  1 
12006.227108  86.71425   -4.7036  188.3690   46.3532   134.9029   135.8925   122.4922   147.1973   0    1  1 
12006.361326  86.40105   -4.7214  188.8170   46.2973   134.9730   136.1027   122.4529   146.9671   0    1  1 
12006.495544  86.40105   -4.7214  188.8170   46.2973   134.9804   135.9821   122.3621   147.3218   0    1  1 
12006.629762  86.40105   -4.7214  188.8170   46.2973   134.9774   135.9555   122.4607   147.0793   0    1  1 
12006.763980  86.15535   -4.7335  189.1680   46.2540   135.0435   135.8349   122.5456   147.0471   0    1  1 
12006.898198  85.57695   -4.7532  189.9940   46.1561   135.0333   135.8145   122.0740   147.1624   0    1  1 
12007.032416  85.57695   -4.7532  189.9940   46.1561   135.0305   135.8461   122.3886   146.9098   0    1  1 
12007.166634  85.57695   -4.7532  189.9940   46.1561   135.2830   136.2962   122.6972   147.5383   0    1  1 
12007.300852  85.34175   -4.7606  190.3290   46.1151   135.2112   135.9008   122.6958   147.3206   0    1  1 
12007.435070  85.34175   -4.7606  190.3290   46.1151   135.3836   136.1631   122.8659   147.3741   0    1  1 
12007.569288  85.07850   -4.7663  190.7040   46.0705   135.4703   136.3273   122.8595   147.7581   0    1  1 
12007.703506  84.76155   -4.7763  191.1540   46.0120   135.6370   136.5706   122.9694   147.6832   0    1  1 
12007.837724  84.76155   -4.7763  191.1540   46.0120   138.2377   138.6293   125.3698   149.9195   0    1  1 
12007.971942  84.49935   -4.7819  191.5260   45.9647   139.4105   139.6735   126.6955   151.3659   0    1  1 
12008.106160  84.10290   -4.7874  192.0880   45.8937   140.5065   140.7081   127.7680   152.2045   0    1  0 
12008.240378  84.10290   -4.7874  192.0880   45.8937   139.5704   140.1907   126.8366   151.5938   0    1  0 
12008.374596  84.10290   -4.7874  192.0880   45.8937   137.6508   138.3369   124.9907   149.8634   0    1  0 
12008.508814  83.75865   -4.7872  192.5760   45.8346   136.5842   137.0814   123.9266   148.6731   0    1  0 
12008.643032  83.75865   -4.7872  192.5760   45.8346   135.0515   136.0978   122.5474   147.2617   0    1  0 
12008.777250  83.45085   -4.7812  193.0130   45.7855   135.0974   136.0718   122.5676   147.0950   0    1  0 
12008.911468  83.25660   -4.6890  193.0130   45.7855   135.1757   136.3348   122.6300   147.5356   0    1  0 
12009.045686  83.25660   -4.6890  193.3120   45.8406   135.0108   136.2695   122.4474   147.4102   0    1  0 
12009.179904  83.11110   -4.5145  193.5660   45.9848   135.0996   136.2391   122.5873   147.6496   0    1  0 
12009.314122  83.11110   -4.5145  193.5660   45.9848   134.9267   136.2212   122.3332   147.5175   0    1  0 
12009.448340  83.03865   -4.4281  193.6930   46.0559   135.1207   136.2774   122.6665   147.3702   0    1  0 
12009.582558  83.02305   -4.3918  193.7260   46.0885   134.9364   136.1947   122.6142   147.4380   0    1  0 
12009.716776  83.02305   -4.3918  193.7260   46.0885   135.2841   136.0372   122.6215   147.5744   0    1  0 
12009.850994  83.03040   -4.3414  193.7310   46.1392   135.1717   136.1305   122.7516   147.3958   0    1  0 
12009.985212  83.02350   -4.3312  193.7450   46.1477   135.1401   135.8540   122.4572   147.1799   0    1  0 
12010.119430  83.02350   -4.3312  193.7450   46.1477   135.1708   136.1848   122.3702   147.5768   0    1  0 
12010.253648  83.02380   -4.3188  193.7490   46.1598   135.1860   136.1229   122.7167   147.6278   0    1  0 
12010.387866  83.02305   -4.3087  193.7540   46.1695   135.1212   135.9073   122.6130   147.4176   0    2  1 
12010.522084  83.02305   -4.3087  193.7540   46.1695   134.9259   136.2927   122.7611   147.3764   0    2  1 
12010.656302  83.02260   -4.3034  193.7570   46.1745   135.1087   136.1243   122.5345   147.5906   0    2  1 
12010.790520  83.02305   -4.2967  193.7600   46.1809   134.8721   136.0664   122.4649   147.2738   0    2  1 
12010.924738  83.02305   -4.2967  193.7600   46.1809   135.0457   136.1816   122.5568   147.1846   0    2  1 
12011.058956  83.02455   -4.2931  193.7600   46.1846   135.0858   136.0958   122.3603   147.2082   0    2  1 
12011.193174  83.02485   -4.2918  193.7610   46.1858   134.7895   135.9390   122.5888   147.4455   0    2  1 
12011.327392  83.02485   -4.2918  193.7610   46.1858   135.1403   135.7676   122.5757   147.1273   0    2  1 
12011.461610  83.02710   -4.2897  193.7610   46.1879   135.1380   136.0464   122.7576   147.3320   0    2  1 
12011.595828  83.02800   -4.2907  193.7610   46.1869   135.0773   135.8473   122.5030   147.4090   0    2  1 
12011.730046  83.02800   -4.2907  193.7610   46.1869   135.1556   136.1553   122.7250   147.4984   0    2  1 
12011.864264  83.02800   -4.2907  193.7610   46.1869   134.9237   136.1147   122.5977   147.2861   0    2  1 
12011.998482  83.03625   -4.2869  193.7520   46.1920   134.9409   136.0539   122.6166   147.4217   0    2  1 
12012.132700  83.03625   -4.2869  193.7520   46.1920   135.0675   135.8141   122.5452   147.1487   0    2  1 
12012.266918  83.03625   -4.2869  193.7520   46.1920   134.9434   136.1365   122.3889   147.2154   0    2  1 
12012.401136  83.23605   -4.0869  193.5260   46.4260   134.9966   136.1838   122.4440   147.3714   0    2  1 
12012.535354  83.23605   -4.0869  193.5260   46.4260   134.9846   136.0391   122.4545   147.1734   0    2  1 
12012.669572  83.35875   -4.0499  193.3620   46.4851   134.8463   135.9393   122.2251   147.2982   0    2  1 
12012.803790  83.35875   -4.0499  193.3620   46.4851   134.9615   135.8584   122.3666   147.4944   0    2  1 
12012.938008  83.35875   -4.0499  193.3620   46.4851   135.1662   136.0362   122.2898   147.1669   0    2  1 
12013.072226  83.52210   -4.0352  193.1340   46.5295   135.1385   136.0144   122.3198   147.4513   0    2  1 
12013.206444  83.98860   -4.0110  192.4750   46.6361   134.9921   135.9926   122.2439   147.1791   0    2  1 
12013.340662  83.98860   -4.0110  192.4750   46.6361   134.7884   135.8969   122.3344   147.3578   0    2  1 
12013.474880  83.98860   -4.0110  192.4750   46.6361   134.8138   136.1493   122.4031   147.3187   0    2  1 
12013.609098  84.21870   -4.0145  192.1450   46.6720   135.1103   136.1560   122.4759   147.4576   0    2  1 
12013.743316  84.21870   -4.0145  192.1450   46.6720   134.8769   136.0075   122.4185   147.4388   0    2  1 
12013.877534  84.71340   -4.0268  191.4330   46.7410   134.8902   135.9320   122.3367   147.5063   0    2  1 
