#     FILENAME=Skynet_60335_crab_108895_58585.A.cal.txt
#     BASENAME=Skynet_60335_crab_108895_58585
#      CONTROL=SKYNET
#     PROJCODE=Skynet_60335_crab_108895
#     DATAROOT=/raid/scratch/cyborg/SkynetData
#      DATADIR=/raid/scratch/cyborg
#     DATADIR2=/raid/scratch/cyborg/SkynetData/Skynet_60335_crab_108895/Cyborg
#     SCANNAME=2019_06_26_10
#     SRC_NAME=crab
#     OBSERVER=tomanm27_55532
#     DATE_OBS=2024-01-27T00:06:35.050
#        OBSID=108895
#      SCANNUM=58585
#          MJD=60336.0045723
#          UTC=00395
#     SCANTYPE=ralongmap
#     DATAMODE=LOWRES
#     RECEIVER=Rx1_2
#      OBSFREQ=1395.0000
#    LO1Tuning=7000.0000
#     RFFILTER=1355_1435
#        OBSBW=-500.0000
#     EFFBANDW=80.0000
#        NCHAN=1024
#    STARTCHAN=747
#     STOPCHAN=911
#         TINT=0.5033
#         TBIN=0.00419430
#       ACCLEN=2048 
#     DURATION=574.72
#     EXPOSURE=502.31
#        FOCUS=37.005
#       RA,DEC=05:25:15.46, 19:45:41.29
#      RA(deg)=83.62942
#     DEC(deg)=22.01537
#   WIDTH(deg)=4.9201x4.6274
#    AZIM(deg)=107.8052
#    ELEV(deg)=55.5962
#     COORDREF=RA_DEC_
#         HREF=83.6283
#         VREF=22.0147
#      RADESYS=FK5
#       OFFSYS=AZEL
#      EQUINOX=2000.00
#     IFATTENS=9.00, 10.00
#   BALANCELEV=1.200 
#   POWER_XLYR=[0.82, 0.68] 
#       VELDEF=RADI-OBS 
#     VELOCITY=0.000 
#         NPOL=2 
#      POLMODE=Linear 
#      POLTYPE=XXYY 
#      WARNING=None 
#     NOISECAL=HI 
#       PRECAL=3 
#      POSTCAL=3 
#     CRYOTEMP=290 
#      BOXTEMP=23 
#         TSYS=YY1:148.51, XX1:127.22
#         TCAL=YY1:9.92, XX1:9.15
# Calibrated Continuum 
#                
#UTC_Time(s)    Ra(hr)  Dec(deg)   Az(deg)   El(deg)        YY1        XX1 Cal   Sweeps 
 395.050000   5.42127   19.7615  112.0750   55.0364   147.6292   131.3118  -1    0  0 
 395.150663   5.42130   19.7615  112.0750   55.0364   156.7911   139.6446   1    0  0 
 395.251326   5.42139   19.7615  112.0750   55.0364   158.1335   140.6904   1    0  0 
 395.351990   5.42142   19.7615  112.0750   55.0364   158.0752   140.5002   1    0  0 
 395.452653   5.42145   19.7615  112.0750   55.0364   157.9380   140.7712   1    0  0 
 395.553316   5.42143   19.7615  112.0750   55.0364   157.9590   140.8252   1    0  0 
 395.653979   5.42146   19.7615  112.0750   55.0364   157.9601   140.7158   1    0  0 
 395.754642   5.42149   19.7615  112.0750   55.0364   157.8446   140.7017   1    0  0 
 395.855305   5.42152   19.7615  112.0750   55.0364   157.9106   140.7264   1    0  0 
 395.955969   5.42153   19.7615  112.0750   55.0364   157.6890   140.6574   1    0  0 
 396.056632   5.42155   19.7615  112.0750   55.0364   157.9453   140.6746   1    0  0 
 396.157295   5.42158   19.7615  112.0750   55.0364   157.7284   140.7840   1    0  0 
 396.257958   5.42161   19.7615  112.0750   55.0364   157.7427   140.7303   1    0  0 
 396.358621   5.42170   19.7615  112.0750   55.0364   157.7879   140.7656   1    0  0 
 396.459285   5.42169   19.7615  112.0750   55.0364   157.8384   140.8167   1    0  0 
 396.559948   5.42172   19.7615  112.0750   55.0364   157.8211   140.7172   1    0  0 
 396.660611   5.42174   19.7615  112.0750   55.0364   157.7840   140.5124   1    0  0 
 396.761275   5.42177   19.7615  112.0750   55.0364   157.8647   140.4423   1    0  0 
 396.861937   5.42172   19.7621  112.0750   55.0370   157.8637   140.5910   1    0  0 
 396.962601   5.42174   19.7622  112.0750   55.0371   157.9296   140.5755   1    0  0 
 397.063264   5.42176   19.7622  112.0750   55.0371   157.8863   140.6549   1    0  0 
 397.163927   5.42192   19.7609  112.0750   55.0358   158.0412   140.6710   1    0  0 
 397.264590   5.42189   19.7615  112.0750   55.0364   157.9747   140.8399   1    0  0 
 397.365254   5.42191   19.7615  112.0750   55.0364   157.8660   140.6123   1    0  0 
 397.465916   5.42194   19.7615  112.0750   55.0364   157.5928   140.6734   1    0  0 
 397.566580   5.42199   19.7615  112.0750   55.0364   157.6354   140.7994   1    0  0 
 397.667243   5.42201   19.7615  112.0750   55.0364   157.8485   140.6334   1    0  0 
 397.767906   5.42204   19.7615  112.0750   55.0364   157.7607   140.5994   1    0  0 
 397.868570   5.42207   19.7615  112.0750   55.0364   158.0240   140.5485   1    0  0 
 397.969233   5.42215   19.7615  112.0750   55.0364   157.9589   140.6554   1    0  0 
 398.069896   5.42214   19.7615  112.0750   55.0364   158.0323   140.6359   1    0  0 
 398.170559   5.42216   19.7615  112.0750   55.0364   147.6536   131.3818   1    0  0 
 398.271222   5.42219   19.7615  112.0750   55.0364   147.4489   131.3210  -1    0  0 
 398.371886   5.42216   19.7615  112.0750   55.0364   147.4898   131.1982   0    0  0 
 398.472549   5.42224   19.7618  112.0750   55.0367   147.6400   131.2405   0    0  0 
 398.573212   5.42227   19.7618  112.0750   55.0367   147.6209   131.1810   0    0  0 
 398.673875   5.42230   19.7618  112.0750   55.0367   147.6047   131.2498   0    0  0 
 398.774538   5.42233   19.7612  112.0750   55.0361   147.7826   131.1187   0    0  0 
 398.875201   5.42235   19.7611  112.0750   55.0360   147.5762   131.1308   0    0  0 
 398.975865   5.42238   19.7611  112.0750   55.0360   147.6271   131.1742   0    0  0 
 399.076528   5.42241   19.7610  112.0750   55.0359   147.5397   131.1723   0    0  0 
 399.177191   5.42248   19.7615  112.0750   55.0364   147.6183   131.1997   0    0  0 
 399.277854   5.42252   19.7615  112.0750   55.0364   147.8806   131.1704   0    0  0 
 399.378517   5.42255   19.7615  112.0750   55.0364   147.6404   131.1797   0    0  0 
 399.479181   5.42184   19.7615  112.0855   55.0427   147.7168   131.2148   0    0  0 
 399.579844   5.39914   19.6759  112.5601   55.2370   147.7326   131.2800   0    0  0 
 399.680507   5.39740   19.6694  112.5967   55.2521   147.7034   131.2485   0    0  0 
 399.781171   5.39566   19.6629  112.6333   55.2673   147.7878   131.2928   0    0  0 
 399.881833   5.40506   19.7631  112.3512   55.2281   147.6825   131.1589   0    0  0 
 399.982497   5.41468   19.7805  112.1754   55.1358   147.6966   131.2454   0    0  0 
 400.083160   5.41457   19.7831  112.1742   55.1389   147.5506   131.2804   0    0  0 
 400.183823   5.41446   19.7856  112.1730   55.1421   147.5668   131.2797   0    0  0 
 400.284486   5.41180   19.7583  112.2522   55.1524   147.5019   131.2100   0    0  0 
 400.385150   5.41393   19.8188  112.1386   55.1698   147.5767   131.2583   0    0  0 
 400.485812   5.41382   19.8239  112.1340   55.1746   147.5341   131.4025   0    0  0 
 400.586476   5.41371   19.8291  112.1293   55.1794   147.6380   131.3411   0    0  0 
 400.687139   5.41406   19.7486  112.2312   55.1243   147.8226   131.2274   0    0  0 
 400.787802   5.41414   19.7688  112.2032   55.1357   147.7477   131.2151   0    0  0 
 400.888466   5.41407   19.7696  112.2036   55.1372   147.7605   131.3985   0    0  0 
 400.989129   5.41401   19.7703  112.2040   55.1386   147.8103   131.2817   0    0  0 
 401.089792   5.41490   19.7709  112.1902   55.1302   147.6482   131.2026   0    0  0 
 401.593108   5.41484   19.7644  112.2030   55.1288   147.7612   131.1445   0    0  0 
 402.096424   5.41549   19.7564  112.2046   55.1174   147.7001   131.2711   0    0  1 
 402.599740   5.41586   19.7609  112.1950   55.1181   147.5939   131.2249   0    0  1 
 403.103056   5.41601   19.7582  112.1986   55.1161   147.5378   131.1495   0    0  1 
 403.606372   5.41630   19.7619  112.1910   55.1167   147.5277   131.0421   0    0  1 
 404.109688   5.45997   19.7110  111.5733   54.6105   147.5125   131.0623   0    0  1 
 404.613004   5.48248   19.9045  110.9648   54.4898   147.3247   131.0944   0    0  1 
 405.116320   5.47483   19.7349  111.3183   54.4656   147.3072   131.1474   0    0  1 
 405.619636   5.48676   19.7594  111.1038   54.3524   147.3769   130.9801   0    0  1 
 406.122952   5.49680   19.7622  110.9487   54.2457   147.4997   131.0831   0    0  1 
 406.626268   5.50845   19.7515  110.7873   54.1126   147.4874   131.0876   0    0  1 
 407.129584   5.51900   19.7608  110.6172   54.0039   147.4020   131.1958   0    0  1 
 407.632900   5.53016   19.7618  110.4493   53.8836   147.5706   131.1300   0    0  1 
 408.136216   5.53985   19.7579  110.3109   53.7761   147.5125   131.1981   0    0  1 
 408.639532   5.55207   19.7650  110.1204   53.6471   147.7894   131.3892   0    0  1 
 409.142848   5.56124   19.7637  109.9881   53.5467   147.9432   131.4423   0    0  1 
 409.646164   5.57231   19.7616  109.8278   53.4249   148.0868   131.6762   0    0  1 
 410.149480   5.58238   19.7597  109.6837   53.3138   148.1209   131.6987   0    0  1 
 410.652796   5.59435   19.7615  109.5065   53.1838   148.0259   131.7273   0    0  1 
 411.156112   5.60402   19.7607  109.3691   53.0780   147.9419   131.4717   0    0  1 
 411.659428   5.61528   19.7609  109.2059   52.9548   147.8083   131.2941   0    0  1 
 412.162744   5.62550   19.7598  109.0610   52.8424   147.7506   131.1997   0    0  1 
 412.666060   5.63774   19.7637  108.8802   52.7099   147.5854   131.2101   0    0  1 
 413.169376   5.64729   19.7633  108.7455   52.6051   147.4473   131.0685   0    0  1 
 413.672692   5.65734   19.7645  108.6026   52.4960   147.3503   131.0168   0    0  1 
 414.176008   5.66867   19.7599  108.4480   52.3684   147.3020   131.0111   0    0  1 
 414.679324   5.67913   19.7608  108.2995   52.2538   147.1806   131.1333   0    0  1 
 415.182640   5.68996   19.7619  108.1472   52.1349   147.2261   131.2862   0    0  1 
 415.685956   5.70010   19.7608  108.0073   52.0227   147.1256   131.2440   0    0  1 
 416.189272   5.71126   19.7611  107.8520   51.9002   147.0752   131.1640   0    0  1 
 416.692588   5.72340   19.7622  107.6822   51.7661   147.1037   131.2301   0    0  1 
 417.195904   5.73340   19.7604  107.5474   51.6549   147.0655   131.3264   0    0  1 
 417.699220   5.74301   19.7638  107.4114   51.5508   147.0119   131.2525   0    0  1 
 418.202536   5.75419   19.7622  107.2610   51.4260   147.1980   131.2031   0    0  0 
 418.705852   5.76589   19.7630  107.1001   51.2968   147.3214   131.2538   0    0  0 
 419.209168   5.71757   19.9527  107.5287   51.9559   147.2740   131.2352   0    0  0 
 419.712484   5.72913   19.9569  107.3653   51.8303   147.2698   131.2859   0    0  0 
 420.215800   5.73286   19.9409  107.3358   51.7803   147.2782   131.2434   0    1  1 
 420.719116   5.73305   19.9306  107.3476   51.7729   147.2291   131.3807   0    1  1 
 421.222432   5.73423   19.9190  107.3485   51.7547   147.2375   131.4143   0    1  1 
 421.725748   5.73432   19.9244  107.3422   51.7587   147.2069   131.3906   0    1  1 
 422.229064   5.68323   19.8797  108.1152   52.3052   147.1106   131.4119   0    1  1 
 422.732380   5.67410   19.8116  108.3346   52.3666   147.1876   131.3752   0    1  1 
 423.235696   5.67414   19.9039  108.2193   52.4238   147.2628   131.3174   0    1  1 
 423.739012   5.65929   19.9578  108.3622   52.6242   147.1312   131.2992   0    1  1 
 424.242328   5.65277   19.9229  108.5038   52.6773   147.3159   131.2379   0    1  1 
 424.745644   5.64087   19.9148  108.6866   52.8062   147.2055   131.1413   0    1  1 
 425.248960   5.63226   19.9123  108.8170   52.9019   147.2755   131.1939   0    1  1 
 425.752276   5.61953   19.9142  108.9997   53.0462   147.2714   131.0661   0    1  1 
 426.255592   5.61049   19.9092  109.1417   53.1449   147.3486   131.1164   0    1  1 
 426.758908   5.59821   19.9131  109.3169   53.2850   147.6240   131.1530   0    1  1 
 427.262224   5.58912   19.9125  109.4537   53.3869   147.6764   131.2189   0    1  1 
 427.765540   5.57687   19.9084  109.6412   53.5216   147.7322   131.2411   0    1  1 
 428.268856   5.56776   19.9106  109.7767   53.6253   147.7062   131.1402   0    1  1 
 428.772172   5.55545   19.9138  109.9563   53.7647   147.5265   130.9959   0    1  1 
 429.275488   5.54491   19.9106  110.1212   53.8805   147.3444   130.9051   0    1  1 
 429.778804   5.53618   19.9135  110.2507   53.9805   147.1144   130.7974   0    1  1 
 430.282120   5.52338   19.9095  110.4512   54.1202   147.1287   130.8116   0    1  1 
 430.785436   5.51440   19.9113  110.5874   54.2217   147.1260   130.7735   0    1  1 
 431.288752   5.50203   19.9104  110.7783   54.3584   146.9788   130.9272   0    1  1 
 431.792068   5.49267   19.9125  110.9213   54.4640   146.9131   130.8260   0    1  1 
 432.295384   5.48056   19.9123  111.1098   54.5982   147.0005   130.7277   0    1  1 
 432.798700   5.47155   19.9123  111.2504   54.6983   146.8623   130.7840   0    1  1 
 433.302016   5.45965   19.9117  111.4382   54.8299   146.8247   130.6967   0    1  1 
 433.805332   5.45014   19.9110  111.5894   54.9347   146.8501   130.5994   0    1  1 
 434.308648   5.43781   19.9122  111.7837   55.0717   146.9273   130.7619   0    1  1 
 434.811964   5.42853   19.9105  111.9342   55.1731   146.9790   130.8147   0    1  1 
 435.315280   5.41815   19.9101  112.0997   55.2874   146.8951   130.9657   0    1  1 
 435.818596   5.40724   19.9096  112.2770   55.4073   147.0019   131.1045   0    1  1 
 436.321912   5.39579   19.9133  112.4574   55.5353   147.1013   130.9658   0    1  0 
 436.825228   5.38483   19.9145  112.6329   55.6566   146.9353   131.0154   0    1  0 
 437.328544   5.42690   19.8264  112.0836   55.1452   147.1184   131.1318   0    1  0 
 437.831860   5.42060   20.1135  111.7974   55.3980   147.0747   131.2391   0    1  0 
 438.335176   5.41479   20.0730  111.9463   55.4365   147.1620   131.1737   0    2  1 
 438.838492   5.41535   20.0711  111.9429   55.4312   147.0013   131.1140   0    2  1 
 439.341808   5.41523   20.0699  111.9481   55.4330   147.0539   131.2097   0    2  1 
 439.845124   5.41511   20.0704  111.9510   55.4360   147.0935   131.0027   0    2  1 
 440.348440   5.45759   20.0039  111.3741   54.9323   147.1249   131.0138   0    2  1 
 440.851756   5.48325   20.2291  110.6701   54.7967   147.0215   131.1152   0    2  1 
 441.355072   5.47487   20.0390  111.0654   54.7678   147.0286   131.0793   0    2  1 
 441.858388   5.48673   20.0508  110.8689   54.6475   147.0266   131.0704   0    2  1 
 442.361704   5.49628   20.0663  110.7043   54.5536   146.9857   131.0580   0    2  1 
 442.865020   5.50858   20.0536  110.5348   54.4120   147.0487   130.9945   0    2  1 
 443.368336   5.51767   20.0564  110.3965   54.3151   147.1652   131.0186   0    2  1 
 443.871652   5.52856   20.0629  110.2250   54.2009   147.0993   131.1751   0    2  1 
 444.374968   5.53885   20.0647  110.0696   54.0898   147.1528   130.9925   0    2  1 
 444.878284   5.55129   20.0623  109.8878   53.9529   147.0817   131.0286   0    2  1 
 445.381600   5.56150   20.0622  109.7385   53.8412   147.1773   131.0312   0    2  1 
 445.884916   5.57106   20.0612  109.5999   53.7364   147.2511   130.9247   0    2  1 
 446.388232   5.58343   20.0608  109.4201   53.6008   147.3157   130.9253   0    2  1 
 446.891548   5.59262   20.0605  109.2869   53.5003   147.2336   130.9863   0    2  1 
 447.394864   5.60438   20.0616  109.1153   53.3721   147.1286   131.1421   0    2  1 
 447.898180   5.61363   20.0600  108.9838   53.2700   147.0173   131.0137   0    2  1 
 448.401496   5.62594   20.0638  108.8029   53.1373   146.9389   130.9988   0    2  1 
 448.904812   5.63522   20.0627  108.6714   53.0347   146.9574   130.9527   0    2  1 
 449.408128   5.64780   20.0642  108.4904   52.8970   146.9433   131.0593   0    2  1 
 449.911444   5.65646   20.0635  108.3697   52.8015   146.8621   130.9493   0    2  1 
 450.414760   5.66918   20.0609  108.1930   52.6600   146.8645   131.1074   0    2  1 
 450.918076   5.67798   20.0606  108.0699   52.5628   146.9139   131.1723   0    2  1 
 451.421392   5.69032   20.0588  107.8997   52.4252   146.8190   131.2895   0    2  1 
 451.924708   5.69879   20.0607  107.7803   52.3336   146.8167   131.2625   0    2  1 
 452.428024   5.71161   20.0621  107.6006   52.1926   146.7071   131.3594   0    2  1 
 452.931340   5.72065   20.0624  107.4747   52.0930   146.6336   131.3005   0    2  1 
 453.434656   5.73153   20.0635  107.3236   51.9733   146.7145   131.3137   0    2  1 
 453.937972   5.74397   20.0613  107.1563   51.8341   146.7291   131.3015   0    2  1 
 454.441288   5.75518   20.0622  107.0023   51.7098   146.7248   131.2599   0    2  0 
 454.944604   5.76370   20.0638  106.8840   51.6172   146.8414   131.2584   0    2  0 
 455.447920   5.72531   20.1923  107.2513   52.1275   146.7060   131.2083   0    2  0 
 455.951236   5.73124   20.2445  107.1033   52.0942   146.7481   131.2577   0    2  0 
 456.454552   5.73305   20.2303  107.0984   52.0667   146.6693   131.2498   0    3  1 
 456.957868   5.73316   20.2300  107.0998   52.0668   146.7751   131.2599   0    3  1 
 457.461184   5.73404   20.2177  107.1052   52.0511   146.6638   131.3154   0    3  1 
 457.964500   5.73437   20.2175  107.1029   52.0488   146.6659   131.2736   0    3  1 
 458.467816   5.68226   20.1664  107.8986   52.6039   146.7476   131.2841   0    3  1 
 458.971132   5.67971   20.1464  107.9630   52.6211   146.8955   131.1589   0    3  1 
 459.474448   5.67331   20.2106  107.9741   52.7334   146.8947   131.1538   0    3  1 
 459.977764   5.66250   20.2213  108.1155   52.8622   146.8940   131.1814   0    3  1 
 460.481080   5.65216   20.2216  108.2660   52.9794   146.8221   131.1474   0    3  1 
 460.984396   5.64188   20.2127  108.4257   53.0898   146.9014   130.9780   0    3  1 
 461.487712   5.63102   20.2144  108.5830   53.2138   146.9283   130.9502   0    3  1 
 461.991028   5.62001   20.2129  108.7464   53.3369   147.0304   130.9966   0    3  1 
 462.494344   5.60965   20.2134  108.8992   53.4539   147.0118   130.9057   0    3  1 
 462.997660   5.59971   20.2107  109.0494   53.5643   146.9205   131.0373   0    3  1 
 463.500976   5.58841   20.2133  109.2143   53.6928   146.9620   130.7981   0    3  1 
 464.004292   5.57754   20.2114  109.3790   53.8137   147.0139   130.7406   0    3  1 
 464.507608   5.56796   20.2104  109.5246   53.9209   147.0224   130.8851   0    3  1 
 465.010924   5.55777   20.2135  109.6733   54.0365   146.9459   130.9159   0    3  1 
 465.514240   5.54659   20.2117  109.8457   54.1610   146.9172   130.9972   0    3  1 
 466.017556   5.53642   20.2122  109.9993   54.2751   146.7393   130.8820   0    3  1 
 466.520872   5.52499   20.2126  110.1731   54.4028   146.8119   130.9761   0    3  1 
 467.024188   5.51484   20.2123  110.3294   54.5162   146.7351   130.9509   0    3  1 
 467.527504   5.50375   20.2101  110.5032   54.6382   146.6474   130.9585   0    3  1 
 468.030820   5.49371   20.2096  110.6595   54.7502   146.5806   131.0527   0    3  1 
 468.534136   5.48243   20.2100  110.8347   54.8756   146.6380   131.0643   0    3  1 
 469.037452   5.47239   20.2120  110.9885   54.9884   146.5722   131.1161   0    3  1 
 469.540768   5.46110   20.2123  111.1658   55.1137   146.5435   131.0939   0    3  1 
 470.044084   5.45093   20.2131  111.3248   55.2279   146.5927   130.9332   0    3  1 
 470.547400   5.43957   20.2111  111.5080   55.3520   146.6463   130.9073   0    3  1 
 471.050716   5.42953   20.2121  111.6671   55.4638   146.6382   130.8689   0    3  1 
 471.554032   5.41665   20.2124  111.8718   55.6059   146.6081   130.8274   0    3  1 
 472.057348   5.40842   20.2118  112.0056   55.6966   146.7244   130.9511   0    3  1 
 472.560664   5.39674   20.2133  112.1925   55.8261   146.7509   130.7877   0    3  0 
 473.063980   5.38716   20.2139  112.3487   55.9326   146.7062   130.9753   0    3  0 
 473.567296   5.42163   20.2619  111.7338   55.5896   146.6414   130.8769   0    3  0 
 474.070612   5.42761   20.6600  111.0930   55.7778   146.7291   131.0345   0    3  0 
 474.573928   5.41662   20.3578  111.6864   55.7072   146.8645   131.1056   0    4  1 
 475.077244   5.41593   20.3600  111.6973   55.7173   146.7253   130.8885   0    4  1 
 475.580560   5.41602   20.3599  111.6976   55.7183   146.7795   130.9160   0    4  1 
 476.083876   5.41570   20.3663  111.6961   55.7273   146.8788   131.0050   0    4  1 
